title:8-june5-II-pm-live, start timestamp:1717571973.873518, stop timestamp:1717572024.805627, headset type:EPOCX, headset serial:E50208D9, headset firmware:730, channels:182, sampling rate:eeg_128;mot_32;mc_8;pm_0.1;fe_32;pow_8, samples:4593      , version:2.2, 
Timestamp,EEG.Counter,EEG.Interpolated,EEG.AF3,EEG.F7,EEG.F3,EEG.FC5,EEG.T7,EEG.P7,EEG.O1,EEG.O2,EEG.P8,EEG.T8,EEG.FC6,EEG.F4,EEG.F8,EEG.AF4,EEG.RawCq,EEG.Battery,EEG.BatteryPercent,MarkerIndex,MarkerType,MarkerValueInt,EEG.MarkerHardware,CQ.AF3,CQ.F7,CQ.F3,CQ.FC5,CQ.T7,CQ.P7,CQ.O1,CQ.O2,CQ.P8,CQ.T8,CQ.FC6,CQ.F4,CQ.F8,CQ.AF4,CQ.Overall,EQ.SampleRateQuality,EQ.OVERALL,EQ.AF3,EQ.F7,EQ.F3,EQ.FC5,EQ.T7,EQ.P7,EQ.O1,EQ.O2,EQ.P8,EQ.T8,EQ.FC6,EQ.F4,EQ.F8,EQ.AF4,MOT.CounterMems,MOT.InterpolatedMems,MOT.Q0,MOT.Q1,MOT.Q2,MOT.Q3,MOT.AccX,MOT.AccY,MOT.AccZ,MOT.MagX,MOT.MagY,MOT.MagZ,MC.Action,MC.ActionPower,MC.IsActive,PM.Attention.IsActive,PM.Attention.Scaled,PM.Attention.Raw,PM.Attention.Min,PM.Attention.Max,PM.Engagement.IsActive,PM.Engagement.Scaled,PM.Engagement.Raw,PM.Engagement.Min,PM.Engagement.Max,PM.Excitement.IsActive,PM.Excitement.Scaled,PM.Excitement.Raw,PM.Excitement.Min,PM.Excitement.Max,PM.LongTermExcitement,PM.Stress.IsActive,PM.Stress.Scaled,PM.Stress.Raw,PM.Stress.Min,PM.Stress.Max,PM.Relaxation.IsActive,PM.Relaxation.Scaled,PM.Relaxation.Raw,PM.Relaxation.Min,PM.Relaxation.Max,PM.Interest.IsActive,PM.Interest.Scaled,PM.Interest.Raw,PM.Interest.Min,PM.Interest.Max,PM.Focus.IsActive,PM.Focus.Scaled,PM.Focus.Raw,PM.Focus.Min,PM.Focus.Max,FE.BlinkWink,FE.HorizontalEyesDirection,FE.UpperFaceAction,FE.UpperFaceActionPower,FE.LowerFaceAction,FE.LowerFaceActionPower,POW.AF3.Theta,POW.AF3.Alpha,POW.AF3.BetaL,POW.AF3.BetaH,POW.AF3.Gamma,POW.F7.Theta,POW.F7.Alpha,POW.F7.BetaL,POW.F7.BetaH,POW.F7.Gamma,POW.F3.Theta,POW.F3.Alpha,POW.F3.BetaL,POW.F3.BetaH,POW.F3.Gamma,POW.FC5.Theta,POW.FC5.Alpha,POW.FC5.BetaL,POW.FC5.BetaH,POW.FC5.Gamma,POW.T7.Theta,POW.T7.Alpha,POW.T7.BetaL,POW.T7.BetaH,POW.T7.Gamma,POW.P7.Theta,POW.P7.Alpha,POW.P7.BetaL,POW.P7.BetaH,POW.P7.Gamma,POW.O1.Theta,POW.O1.Alpha,POW.O1.BetaL,POW.O1.BetaH,POW.O1.Gamma,POW.O2.Theta,POW.O2.Alpha,POW.O2.BetaL,POW.O2.BetaH,POW.O2.Gamma,POW.P8.Theta,POW.P8.Alpha,POW.P8.BetaL,POW.P8.BetaH,POW.P8.Gamma,POW.T8.Theta,POW.T8.Alpha,POW.T8.BetaL,POW.T8.BetaH,POW.T8.Gamma,POW.FC6.Theta,POW.FC6.Alpha,POW.FC6.BetaL,POW.FC6.BetaH,POW.FC6.Gamma,POW.F4.Theta,POW.F4.Alpha,POW.F4.BetaL,POW.F4.BetaH,POW.F4.Gamma,POW.F8.Theta,POW.F8.Alpha,POW.F8.BetaL,POW.F8.BetaH,POW.F8.Gamma,POW.AF4.Theta,POW.AF4.Alpha,POW.AF4.BetaL,POW.AF4.BetaH,POW.AF4.Gamma
1717571973.873518,81.000000,0.000000,4336.794922,4340.512695,4340.512695,4341.153809,4352.948730,4346.025879,4340.512695,4370.000000,4336.922852,4292.179688,4463.589844,4497.820313,4409.102539,4414.358887,6776.000000,0.000000,4.000000,,,,0.000000,4.000000,4.000000,4.000000,4.000000,4.000000,4.000000,4.000000,4.000000,4.000000,4.000000,4.000000,4.000000,4.000000,4.000000,100.000000,,,,,,,,,,,,,,,,,,,,,,,,,,,,,,,,,,,,,,,,,,,,,,,,,,,,,,,,,,,,,,,,,,,,0.000000,0.000000,1.000000,0.000000,512.000000,1.000000,,,,,,,,,,,,,,,,,,,,,,,,,,,,,,,,,,,,,,,,,,,,,,,,,,,,,,,,,,,,,,,,,,,,,,
1717571977.537227,39.000000,0.000000,4384.358887,4364.358887,4375.769043,4390.256348,4334.230957,4332.820313,4334.230957,4349.615234,4338.333496,4364.230957,4481.282227,4530.769043,4400.128418,4461.538574,0.000000,0.000000,4.000000,,,,0.000000,4.000000,4.000000,4.000000,4.000000,4.000000,4.000000,4.000000,4.000000,4.000000,4.000000,4.000000,4.000000,4.000000,4.000000,100.000000,,,,,,,,,,,,,,,,,,,,,,,,,,,,,,,,,,,,,,,,,,,,,,,,,,,,,,,,,,,,,,,,,,,,,,,,,,,,,,,,,,,,,,,,,,,,,,,,,,,,,,,,,,,,,,,,,,,,,,,,,,,,,,,,,,,,,,,,,,,,,,,
1717571977.545335,40.000000,1.000000,4382.958008,4362.996094,4374.534668,4389.154785,4334.083496,4332.891602,4334.107422,4349.354004,4337.834961,4362.863281,4479.301758,4528.271484,4397.796875,4459.159668,142.185181,0.000000,4.000000,,,,0.000000,4.000000,4.000000,4.000000,4.000000,4.000000,4.000000,4.000000,4.000000,4.000000,4.000000,4.000000,4.000000,4.000000,4.000000,100.000000,,,,,,,,,,,,,,,,,,,,,,,,,,,,,,,,,,,,,,,,,,,,,,,,,,,,,,,,,,,,,,,,,,,,,,,,,,,,,,,,,,,,,,,,,,,,,,,,,,,,,,,,,,,,,,,,,,,,,,,,,,,,,,,,,,,,,,,,,,,,,,,
1717571977.553143,41.000000,1.000000,4381.557617,4361.633301,4373.300293,4388.053223,4333.936523,4332.962891,4333.983887,4349.093262,4337.336426,4361.495605,4477.321777,4525.773926,4395.465332,4456.780762,284.370361,0.000000,4.000000,,,,0.000000,4.000000,4.000000,4.000000,4.000000,4.000000,4.000000,4.000000,4.000000,4.000000,4.000000,4.000000,4.000000,4.000000,4.000000,100.000000,,,,,,,,,,,,,,,,,,,,,,,,,,,,,,,,,,,,,,,,,,,,,,,,,,,,,,,,,,,,,,,,,,,,,,,,,,,,,,,,,,,,,,,,,,,,,,,,,,,,,,,,,,,,,,,,,,,,,,,,,,,,,,,,,,,,,,,,,,,,,,,
1717571977.560951,42.000000,1.000000,4380.156738,4360.270508,4372.065430,4386.951660,4333.789063,4333.034180,4333.860352,4348.832031,4336.837402,4360.128418,4475.341797,4523.276367,4393.133789,4454.401855,426.555542,0.000000,4.000000,,,,0.000000,4.000000,4.000000,4.000000,4.000000,4.000000,4.000000,4.000000,4.000000,4.000000,4.000000,4.000000,4.000000,4.000000,4.000000,100.000000,,,,,,,,,,,,,,,,,,,,,,,,,,,,,,,,,,,,,,,,,,,,,,,,,,,,,,,,,,,,,,,,,,,,0.000000,0.000000,1.000000,0.000000,512.000000,1.000000,,,,,,,,,,,,,,,,,,,,,,,,,,,,,,,,,,,,,,,,,,,,,,,,,,,,,,,,,,,,,,,,,,,,,,
1717571977.568759,43.000000,1.000000,4378.755859,4358.907715,4370.831055,4385.850098,4333.642090,4333.105469,4333.736816,4348.570801,4336.338867,4358.760742,4473.361816,4520.778809,4390.802246,4452.022949,568.740723,0.000000,4.000000,,,,0.000000,4.000000,4.000000,4.000000,4.000000,4.000000,4.000000,4.000000,4.000000,4.000000,4.000000,4.000000,4.000000,4.000000,4.000000,100.000000,,,,,,,,,,,,,,,,,,,,,,,,,,,,,,,,,,,,,,,,,,,,,,,,,,,,,,,,,,,,,,,,,,,,,,,,,,,,,,,,,,,,,,,,,,,,,,,,,,,,,,,,,,,,,,,,,,,,,,,,,,,,,,,,,,,,,,,,,,,,,,,
1717571977.576567,44.000000,1.000000,4377.354980,4357.544922,4369.596191,4384.748535,4333.494629,4333.176758,4333.613281,4348.309570,4335.840332,4357.393066,4471.381836,4518.281250,4388.471191,4449.644043,710.925903,0.000000,4.000000,,,,0.000000,4.000000,4.000000,4.000000,4.000000,4.000000,4.000000,4.000000,4.000000,4.000000,4.000000,4.000000,4.000000,4.000000,4.000000,100.000000,,,,,,,,,,,,,,,,,,,,,,,,,,,,,,,,,,,,,,,,,,,,,,,,,,,,,,,,,,,,,,,,,,,,,,,,,,,,,,,,,,,,,,,,,,,,,,,,,,,,,,,,,,,,,,,,,,,,,,,,,,,,,,,,,,,,,,,,,,,,,,,
1717571977.584375,45.000000,1.000000,4375.954590,4356.182129,4368.361816,4383.646484,4333.347656,4333.248047,4333.490234,4348.048340,4335.341797,4356.025879,4469.401855,4515.783691,4386.139648,4447.265137,853.111084,0.000000,4.000000,,,,0.000000,4.000000,4.000000,4.000000,4.000000,4.000000,4.000000,4.000000,4.000000,4.000000,4.000000,4.000000,4.000000,4.000000,4.000000,100.000000,,,,,,,,,,,,,,,,,,,,,,,,,,,,,,,,,,,,,,,,,,,,,,,,,,,,,,,,,,,,,,,,,,,,,,,,,,,,,,,,,,,,,,,,,,,,,,,,,,,,,,,,,,,,,,,,,,,,,,,,,,,,,,,,,,,,,,,,,,,,,,,
1717571977.592183,46.000000,1.000000,4374.553711,4354.819336,4367.127441,4382.544922,4333.200195,4333.318848,4333.366699,4347.787109,4334.843262,4354.658203,4467.421875,4513.285645,4383.808105,4444.886230,995.296326,0.000000,4.000000,,,,0.000000,4.000000,4.000000,4.000000,4.000000,4.000000,4.000000,4.000000,4.000000,4.000000,4.000000,4.000000,4.000000,4.000000,4.000000,100.000000,,,,,,,,,,,,,,,,,,,,,,,,,,,,,1.000000,0.000000,0.000000,,,,,,,,,,,,,,,,,,,,,,,,,,,,,,,,,,,,,0.000000,0.000000,1.000000,0.000000,512.000000,1.000000,10.405245,3.736083,3.199527,1.275022,0.405348,10.046994,3.724490,3.110697,1.142940,0.409540,8.847785,2.932405,2.619567,1.238680,0.362608,7.291282,2.904880,2.967022,1.410991,0.377764,3.838289,1.605210,0.412257,0.294573,0.135917,17.817041,6.363583,3.539031,1.063298,0.618007,6.078440,2.360923,1.698813,0.955381,0.379087,9.064170,3.963977,2.257831,2.196514,0.867064,12.276470,5.817974,1.850233,2.019309,0.870543,10.616273,3.066903,1.316449,0.409213,0.238781,6.255080,3.194594,2.613401,1.561908,0.608053,9.148526,3.777141,3.358427,1.542934,0.552932,51.940884,21.076685,12.467112,8.935094,3.348877,6.211522,2.811924,2.657172,1.144433,0.389864
1717571977.599991,47.000000,1.000000,4373.152832,4353.457031,4365.892578,4381.443359,4333.053223,4333.390137,4333.243164,4347.525879,4334.344727,4353.290527,4465.441406,4510.788086,4381.476563,4442.507324,1137.481445,0.000000,4.000000,,,,0.000000,4.000000,4.000000,4.000000,4.000000,4.000000,4.000000,4.000000,4.000000,4.000000,4.000000,4.000000,4.000000,4.000000,4.000000,100.000000,,,,,,,,,,,,,,,,,,,,,,,,,,,,,,,,,,,,,,,,,,,,,,,,,,,,,,,,,,,,,,,,,,,,,,,,,,,,,,,,,,,,,,,,,,,,,,,,,,,,,,,,,,,,,,,,,,,,,,,,,,,,,,,,,,,,,,,,,,,,,,,
1717571977.607799,48.000000,1.000000,4371.751953,4352.094238,4364.658203,4380.341797,4332.905762,4333.461426,4333.119629,4347.265137,4333.846191,4351.922852,4463.461426,4508.290527,4379.145508,4440.128418,1279.666626,0.000000,4.000000,,,,0.000000,4.000000,4.000000,4.000000,4.000000,4.000000,4.000000,4.000000,4.000000,4.000000,4.000000,4.000000,4.000000,4.000000,4.000000,100.000000,,,,,,,,,,,,,,,,,,,,,,,,,,,,,,,,,,,,,,,,,,,,,,,,,,,,,,,,,,,,,,,,,,,,,,,,,,,,,,,,,,,,,,,,,,,,,,,,,,,,,,,,,,,,,,,,,,,,,,,,,,,,,,,,,,,,,,,,,,,,,,,
1717571977.615607,49.000000,1.000000,4370.351563,4350.731445,4363.423340,4379.240234,4332.758789,4333.532715,4332.996094,4347.003906,4333.347656,4350.555664,4461.481445,4505.792969,4376.813965,4437.749512,1421.851807,0.000000,4.000000,,,,0.000000,4.000000,4.000000,4.000000,4.000000,4.000000,4.000000,4.000000,4.000000,4.000000,4.000000,4.000000,4.000000,4.000000,4.000000,100.000000,,,,,,,,,,,,,,,,,,,,,,,,,,,,,,,,,,,,,,,,,,,,,,,,,,,,,,,,,,,,,,,,,,,,,,,,,,,,,,,,,,,,,,,,,,,,,,,,,,,,,,,,,,,,,,,,,,,,,,,,,,,,,,,,,,,,,,,,,,,,,,,
1717571977.623415,50.000000,1.000000,4368.950684,4349.368652,4362.188965,4378.138672,4332.611816,4333.604004,4332.872559,4346.742676,4332.849121,4349.187988,4459.501465,4503.295410,4374.482422,4435.370605,1564.036987,0.000000,4.000000,,,,0.000000,4.000000,4.000000,4.000000,4.000000,4.000000,4.000000,4.000000,4.000000,4.000000,4.000000,4.000000,4.000000,4.000000,4.000000,100.000000,,,,,,,,,,,,,,,,,,,,,,,,,,,,,,,,,,,,,,,,,,,,,,,,,,,,,,,,,,,,,,,,,,,,0.000000,0.000000,1.000000,0.000000,512.000000,1.000000,,,,,,,,,,,,,,,,,,,,,,,,,,,,,,,,,,,,,,,,,,,,,,,,,,,,,,,,,,,,,,,,,,,,,,
1717571977.631223,51.000000,1.000000,4367.549805,4348.005859,4360.954590,4377.037109,4332.464355,4333.675293,4332.749512,4346.481445,4332.350586,4347.820313,4457.521484,4500.797852,4372.150879,4432.991211,1706.222168,0.000000,4.000000,,,,0.000000,4.000000,4.000000,4.000000,4.000000,4.000000,4.000000,4.000000,4.000000,4.000000,4.000000,4.000000,4.000000,4.000000,4.000000,100.000000,,,,,,,,,,,,,,,,,,,,,,,,,,,,,,,,,,,,,,,,,,,,,,,,,,,,,,,,,,,,,,,,,,,,,,,,,,,,,,,,,,,,,,,,,,,,,,,,,,,,,,,,,,,,,,,,,,,,,,,,,,,,,,,,,,,,,,,,,,,,,,,
1717571977.639031,52.000000,1.000000,4366.148926,4346.643066,4359.719727,4375.935547,4332.317383,4333.746582,4332.625977,4346.220215,4331.852051,4346.453125,4455.541504,4498.300293,4369.819336,4430.612305,1848.407349,0.000000,4.000000,,,,0.000000,4.000000,4.000000,4.000000,4.000000,4.000000,4.000000,4.000000,4.000000,4.000000,4.000000,4.000000,4.000000,4.000000,4.000000,100.000000,,,,,,,,,,,,,,,,,,,,,,,,,,,,,,,,,,,,,,,,,,,,,,,,,,,,,,,,,,,,,,,,,,,,,,,,,,,,,,,,,,,,,,,,,,,,,,,,,,,,,,,,,,,,,,,,,,,,,,,,,,,,,,,,,,,,,,,,,,,,,,,
1717571977.646838,53.000000,1.000000,4364.748535,4345.280273,4358.485352,4374.833984,4332.169922,4333.817871,4332.502441,4345.958984,4331.353516,4345.085449,4453.561035,4495.802246,4367.488281,4428.233398,1990.592651,0.000000,4.000000,,,,0.000000,4.000000,4.000000,4.000000,4.000000,4.000000,4.000000,4.000000,4.000000,4.000000,4.000000,4.000000,4.000000,4.000000,4.000000,100.000000,,,,,,,,,,,,,,,,,,,,,,,,,,,,,,,,,,,,,,,,,,,,,,,,,,,,,,,,,,,,,,,,,,,,,,,,,,,,,,,,,,,,,,,,,,,,,,,,,,,,,,,,,,,,,,,,,,,,,,,,,,,,,,,,,,,,,,,,,,,,,,,
1717571977.654646,54.000000,1.000000,4363.347656,4343.917480,4357.250488,4373.732422,4332.022949,4333.888672,4332.378906,4345.698242,4330.854492,4343.717773,4451.581055,4493.304688,4365.156738,4425.854492,2132.777832,0.000000,4.000000,,,,0.000000,4.000000,4.000000,4.000000,4.000000,4.000000,4.000000,4.000000,4.000000,4.000000,4.000000,4.000000,4.000000,4.000000,4.000000,100.000000,,,,,,,,,,,,,,,,,,,,,,,,,,,,,,,,,,,,,,,,,,,,,,,,,,,,,,,,,,,,,,,,,,,,0.000000,0.000000,1.000000,0.000000,512.000000,1.000000,,,,,,,,,,,,,,,,,,,,,,,,,,,,,,,,,,,,,,,,,,,,,,,,,,,,,,,,,,,,,,,,,,,,,,
1717571977.662454,55.000000,1.000000,4361.946777,4342.554688,4356.016113,4372.630371,4331.875488,4333.959961,4332.255371,4345.437012,4330.355957,4342.350586,4449.601074,4490.807129,4362.825195,4423.475586,2274.962891,0.000000,4.000000,,,,0.000000,4.000000,4.000000,4.000000,4.000000,4.000000,4.000000,4.000000,4.000000,4.000000,4.000000,4.000000,4.000000,4.000000,4.000000,100.000000,,,,,,,,,,,,,,,,,,,,,,,,,,,,,,,,,,,,,,,,,,,,,,,,,,,,,,,,,,,,,,,,,,,,,,,,,,,,,,,,,,,,,,,,,,,,,,,,,,,,,,,,,,,,,,,,,,,,,,,,,,,,,,,,,,,,,,,,,,,,,,,
1717571977.670262,56.000000,1.000000,4360.545898,4341.191895,4354.781738,4371.528809,4331.728516,4334.031250,4332.131836,4345.175781,4329.857422,4340.982910,4447.621094,4488.309570,4360.493652,4421.096680,2417.148193,0.000000,4.000000,,,,0.000000,4.000000,4.000000,4.000000,4.000000,4.000000,4.000000,4.000000,4.000000,4.000000,4.000000,4.000000,4.000000,4.000000,4.000000,100.000000,,,,,,,,,,,,,,,,,14.000000,1.000000,0.408836,-0.532593,-0.358398,-0.648651,0.980222,0.022097,0.169210,-34.616108,-31.187511,24.825422,,,,,,,,,,,,,,,,,,,,,,,,,,,,,,,,,,,,,,,,,,,,,,,,,,,,,,,,,,,,,,,,,,,,,,,,,,,,,,,,,,,,,,,,,,,,,,,,,,,,,,,,,,,,,,,,,,,
1717571977.678070,57.000000,1.000000,4359.145508,4339.829102,4353.546875,4370.427246,4331.581055,4334.102539,4332.008789,4344.914551,4329.358887,4339.615234,4445.641113,4485.812012,4358.162598,4418.717773,2559.333252,0.000000,4.000000,,,,0.000000,4.000000,4.000000,4.000000,4.000000,4.000000,4.000000,4.000000,4.000000,4.000000,4.000000,4.000000,4.000000,4.000000,4.000000,100.000000,,,,,,,,,,,,,,,,,,,,,,,,,,,,,,,,,,,,,,,,,,,,,,,,,,,,,,,,,,,,,,,,,,,,,,,,,,,,,,,,,,,,,,,,,,,,,,,,,,,,,,,,,,,,,,,,,,,,,,,,,,,,,,,,,,,,,,,,,,,,,,,
1717571977.685878,58.000000,1.000000,4357.744629,4338.466309,4352.312500,4369.325684,4331.434082,4334.173828,4331.885254,4344.653320,4328.860352,4338.248047,4443.661133,4483.314453,4355.831055,4416.338867,2701.518555,0.000000,4.000000,,,,0.000000,4.000000,4.000000,4.000000,4.000000,4.000000,4.000000,4.000000,4.000000,4.000000,4.000000,4.000000,4.000000,4.000000,4.000000,100.000000,,,,,,,,,,,,,,,,,,,,,,,,,,,,,,,,,,,,,,,,,,,,,,,,,,,,,,,,,,,,,,,,,,,,0.000000,0.000000,1.000000,0.000000,512.000000,1.000000,,,,,,,,,,,,,,,,,,,,,,,,,,,,,,,,,,,,,,,,,,,,,,,,,,,,,,,,,,,,,,,,,,,,,,
1717571977.693686,59.000000,1.000000,4356.343750,4337.103516,4351.077637,4368.224121,4331.286621,4334.245117,4331.761719,4344.392090,4328.361816,4336.880371,4441.681152,4480.816895,4353.499512,4413.959961,2843.703613,0.000000,4.000000,,,,0.000000,4.000000,4.000000,4.000000,4.000000,4.000000,4.000000,4.000000,4.000000,4.000000,4.000000,4.000000,4.000000,4.000000,4.000000,100.000000,,,,,,,,,,,,,,,,,,,,,,,,,,,,,,,,,,,,,,,,,,,,,,,,,,,,,,,,,,,,,,,,,,,,,,,,,,,,,,,,,,,,,,,,,,,,,,,,,,,,,,,,,,,,,,,,,,,,,,,,,,,,,,,,,,,,,,,,,,,,,,,
1717571977.701494,60.000000,1.000000,4354.942871,4335.740723,4349.843262,4367.122559,4331.139648,4334.316406,4331.638184,4344.130859,4327.863281,4335.512695,4439.700684,4478.318848,4351.167969,4411.581055,2985.888916,0.000000,4.000000,,,,0.000000,4.000000,4.000000,4.000000,4.000000,4.000000,4.000000,4.000000,4.000000,4.000000,4.000000,4.000000,4.000000,4.000000,4.000000,100.000000,,,,,,,,,,,,,,,,,15.000000,0.000000,0.408928,-0.532593,-0.358459,-0.648560,0.990722,0.019656,0.166280,-34.621311,-31.275660,25.002588,,,,,,,,,,,,,,,,,,,,,,,,,,,,,,,,,,,,,,,,,,,,,,,,,,,,,,,,,,,,,,,,,,,,,,,,,,,,,,,,,,,,,,,,,,,,,,,,,,,,,,,,,,,,,,,,,,,
1717571977.709302,61.000000,1.000000,4353.542480,4334.377930,4348.608887,4366.020996,4330.992188,4334.387695,4331.514648,4343.870117,4327.364746,4334.145508,4437.720703,4475.821289,4348.836426,4409.202148,3128.073975,0.000000,4.000000,,,,0.000000,4.000000,4.000000,4.000000,4.000000,4.000000,4.000000,4.000000,4.000000,4.000000,4.000000,4.000000,4.000000,4.000000,4.000000,100.000000,,,,,,,,,,,,,,,,,,,,,,,,,,,,,,,,,,,,,,,,,,,,,,,,,,,,,,,,,,,,,,,,,,,,,,,,,,,,,,,,,,,,,,,,,,,,,,,,,,,,,,,,,,,,,,,,,,,,,,,,,,,,,,,,,,,,,,,,,,,,,,,
1717571977.717110,62.000000,1.000000,4352.141602,4333.015137,4347.374023,4364.919434,4330.845215,4334.458496,4331.391113,4343.608887,4326.866211,4332.777832,4435.740723,4473.323730,4346.505371,4406.823242,3270.259277,0.000000,4.000000,,,,0.000000,4.000000,4.000000,4.000000,4.000000,4.000000,4.000000,4.000000,4.000000,4.000000,4.000000,4.000000,4.000000,4.000000,4.000000,100.000000,-1.000000,25.000000,1.000000,3.000000,1.000000,1.000000,1.000000,1.000000,1.000000,1.000000,1.000000,1.000000,1.000000,1.000000,1.000000,3.000000,,,,,,,,,,,,,1.000000,0.000000,0.000000,,,,,,,,,,,,,,,,,,,,,,,,,,,,,,,,,,,,,0.000000,0.000000,1.000000,0.000000,512.000000,1.000000,5.702706,1.827719,1.601028,0.576847,0.222490,6.055607,1.924833,1.673249,0.572613,0.236672,3.997893,1.151366,1.121833,0.461644,0.168265,4.748573,1.513727,1.519885,0.675874,0.234370,1.516134,0.791372,0.245498,0.195465,0.084987,10.641972,3.628200,2.054199,0.634480,0.396946,3.660111,1.210527,0.864025,0.447410,0.232646,4.045856,1.818383,0.911539,0.948382,0.408303,7.588610,3.674118,1.185946,1.220829,0.532807,4.672805,1.391186,0.709607,0.236252,0.166925,3.296883,1.327739,1.042247,0.571795,0.292067,5.157573,1.694738,1.577197,0.603347,0.284508,20.567301,8.498178,4.453063,3.470457,1.350975,3.667937,1.323125,1.288830,0.462335,0.207685
1717571977.724918,63.000000,1.000000,4350.740723,4331.652344,4346.139648,4363.817871,4330.698242,4334.529785,4331.267578,4343.347656,4326.367676,4331.410156,4433.760742,4470.826172,4344.173828,4404.444336,3412.444336,0.000000,4.000000,,,,0.000000,4.000000,4.000000,4.000000,4.000000,4.000000,4.000000,4.000000,4.000000,4.000000,4.000000,4.000000,4.000000,4.000000,4.000000,100.000000,,,,,,,,,,,,,,,,,,,,,,,,,,,,,,,,,,,,,,,,,,,,,,,,,,,,,,,,,,,,,,,,,,,,,,,,,,,,,,,,,,,,,,,,,,,,,,,,,,,,,,,,,,,,,,,,,,,,,,,,,,,,,,,,,,,,,,,,,,,,,,,
1717571977.732726,64.000000,1.000000,4349.339844,4330.289551,4344.905273,4362.715820,4330.550781,4334.601074,4331.144531,4343.086426,4325.869141,4330.042969,4431.780762,4468.328613,4341.842285,4402.065430,3979.000000,0.000000,4.000000,,,,0.000000,4.000000,4.000000,4.000000,4.000000,4.000000,4.000000,4.000000,4.000000,4.000000,4.000000,4.000000,4.000000,4.000000,4.000000,100.000000,,,,,,,,,,,,,,,,,16.000000,0.000000,0.408772,-0.532959,-0.358093,-0.648560,0.964839,0.031864,0.169698,-34.659927,-31.063284,25.145430,,,,,,,,,,,,,,,,,,,,,,,,,,,,,,,,,,,,,,,,,,,,,,,,,,,,,,,,,,,,,,,,,,,,,,,,,,,,,,,,,,,,,,,,,,,,,,,,,,,,,,,,,,,,,,,,,,,
1717571977.740534,65.000000,1.000000,4347.939453,4328.926758,4343.670410,4361.614258,4330.403809,4334.672363,4331.020996,4342.825195,4325.370605,4328.675293,4429.800781,4465.831055,4339.510742,4399.686523,5465.000000,0.000000,4.000000,,,,0.000000,4.000000,4.000000,4.000000,4.000000,4.000000,4.000000,4.000000,4.000000,4.000000,4.000000,4.000000,4.000000,4.000000,4.000000,100.000000,,,,,,,,,,,,,,,,,,,,,,,,,,,,,,,,,,,,,,,,,,,,,,,,,,,,,,,,,,,,,,,,,,,,,,,,,,,,,,,,,,,,,,,,,,,,,,,,,,,,,,,,,,,,,,,,,,,,,,,,,,,,,,,,,,,,,,,,,,,,,,,
1717571977.748342,66.000000,0.000000,4346.538574,4327.563965,4342.436035,4360.512695,4330.256348,4334.743652,4330.897461,4342.563965,4324.871582,4327.307617,4427.820313,4463.333496,4337.179688,4397.307617,3839.000000,0.000000,4.000000,,,,0.000000,4.000000,4.000000,4.000000,4.000000,4.000000,4.000000,4.000000,4.000000,4.000000,4.000000,4.000000,4.000000,4.000000,4.000000,100.000000,,,,,,,,,,,,,,,,,,,,,,,,,,,,,,,,,,,,,,,,,,,,,,,,,,,,,,,,,,,,,,,,,,,,0.000000,0.000000,1.000000,0.000000,512.000000,1.000000,,,,,,,,,,,,,,,,,,,,,,,,,,,,,,,,,,,,,,,,,,,,,,,,,,,,,,,,,,,,,,,,,,,,,,
1717571977.756150,67.000000,0.000000,4350.512695,4323.974121,4344.230957,4349.102539,4332.051270,4335.384766,4327.307617,4340.256348,4326.538574,4325.897461,4427.820313,4460.512695,4338.846191,4394.743652,3532.000000,0.000000,4.000000,,,,0.000000,4.000000,4.000000,4.000000,4.000000,4.000000,4.000000,4.000000,4.000000,4.000000,4.000000,4.000000,4.000000,4.000000,4.000000,100.000000,,,,,,,,,,,,,,,,,,,,,,,,,,,,,,,,,,,,,,,,,,,,,,,,,,,,,,,,,,,,,,,,,,,,,,,,,,,,,,,,,,,,,,,,,,,,,,,,,,,,,,,,,,,,,,,,,,,,,,,,,,,,,,,,,,,,,,,,,,,,,,,
1717571977.763958,68.000000,0.000000,4347.051270,4325.769043,4341.666504,4336.282227,4331.410156,4337.948730,4325.000000,4337.436035,4327.948730,4329.743652,4428.589844,4455.128418,4333.461426,4393.461426,5218.000000,0.000000,4.000000,,,,0.000000,4.000000,4.000000,4.000000,4.000000,4.000000,4.000000,4.000000,4.000000,4.000000,4.000000,4.000000,4.000000,4.000000,4.000000,100.000000,,,,,,,,,,,,,,,,,17.000000,0.000000,0.409062,-0.532959,-0.358093,-0.648376,0.979978,0.035771,0.167745,-34.681210,-31.081261,25.247799,,,,,,,,,,,,,,,,,,,,,,,,,,,,,,,,,,,,,,,,,,,,,,,,,,,,,,,,,,,,,,,,,,,,,,,,,,,,,,,,,,,,,,,,,,,,,,,,,,,,,,,,,,,,,,,,,,,
1717571977.771766,69.000000,0.000000,4335.384766,4333.589844,4333.205078,4336.153809,4328.077148,4329.743652,4317.051270,4326.538574,4316.410156,4325.256348,4409.871582,4440.384766,4313.717773,4377.563965,5402.000000,0.000000,4.000000,,,,0.000000,4.000000,4.000000,4.000000,4.000000,4.000000,4.000000,4.000000,4.000000,4.000000,4.000000,4.000000,4.000000,4.000000,4.000000,100.000000,,,,,,,,,,,,,,,,,,,,,,,,,,,,,,,,,,,,,,,,,,,,,,,,,,,,,,,,,,,,,,,,,,,,,,,,,,,,,,,,,,,,,,,,,,,,,,,,,,,,,,,,,,,,,,,,,,,,,,,,,,,,,,,,,,,,,,,,,,,,,,,
1717571977.779574,70.000000,0.000000,4329.743652,4328.205078,4326.794922,4345.769043,4333.589844,4325.128418,4313.717773,4323.205078,4311.794922,4321.922852,4408.461426,4436.025879,4312.307617,4371.538574,5187.000000,0.000000,4.000000,,,,0.000000,4.000000,4.000000,4.000000,4.000000,4.000000,4.000000,4.000000,4.000000,4.000000,4.000000,4.000000,4.000000,4.000000,4.000000,100.000000,,,,,,,,,,,,,,,,,,,,,,,,,,,,,,,,,,,,,,,,,,,,,,,,,,,,,,,,,,,,,,,,,,,,0.000000,0.000000,1.000000,0.000000,512.000000,1.000000,,,,,,,,,,,,,,,,,,,,,,,,,,,,,,,,,,,,,,,,,,,,,,,,,,,,,,,,,,,,,,,,,,,,,,
1717571977.787282,71.000000,0.000000,4332.692383,4322.820313,4327.948730,4346.153809,4340.384766,4334.615234,4322.307617,4329.230957,4319.230957,4327.179688,4428.461426,4444.615234,4328.461426,4382.692383,4696.000000,0.000000,4.000000,,,,0.000000,4.000000,4.000000,4.000000,4.000000,4.000000,4.000000,4.000000,4.000000,4.000000,4.000000,4.000000,4.000000,4.000000,4.000000,100.000000,,,,,,,,,,,,,,,,,,,,,,,,,,,,,,,,,,,,,,,,,,,,,,,,,,,,,,,,,,,,,,,,,,,,,,,,,,,,,,,,,,,,,,,,,,,,,,,,,,,,,,,,,,,,,,,,,,,,,,,,,,,,,,,,,,,,,,,,,,,,,,,
1717571977.795090,72.000000,0.000000,4330.512695,4340.641113,4326.666504,4335.000000,4342.692383,4340.769043,4327.820313,4329.102539,4317.307617,4328.461426,4425.512695,4445.384766,4322.692383,4382.436035,5195.000000,0.000000,4.000000,,,,0.000000,4.000000,4.000000,4.000000,4.000000,4.000000,4.000000,4.000000,4.000000,4.000000,4.000000,4.000000,4.000000,4.000000,4.000000,100.000000,,,,,,,,,,,,,,,,,18.000000,0.000000,0.409062,-0.532959,-0.358093,-0.648376,0.992675,0.019656,0.179954,-34.647770,-31.164238,25.195145,,,,,,,,,,,,,,,,,,,,,,,,,,,,,,,,,,,,,,,,,,,,,,,,,,,,,,,,,,,,,,,,,,,,,,,,,,,,,,,,,,,,,,,,,,,,,,,,,,,,,,,,,,,,,,,,,,,
1717571977.802698,73.000000,1.000000,4330.128418,4342.615234,4326.128418,4337.307617,4343.589844,4338.256348,4327.179688,4329.461426,4316.282227,4327.153809,4425.487305,4445.538574,4322.256348,4382.846191,4806.000000,0.000000,4.000000,,,,0.000000,4.000000,4.000000,4.000000,4.000000,4.000000,4.000000,4.000000,4.000000,4.000000,4.000000,4.000000,4.000000,4.000000,4.000000,100.000000,,,,,,,,,,,,,,,,,,,,,,,,,,,,,,,,,,,,,,,,,,,,,,,,,,,,,,,,,,,,,,,,,,,,,,,,,,,,,,,,,,,,,,,,,,,,,,,,,,,,,,,,,,,,,,,,,,,,,,,,,,,,,,,,,,,,,,,,,,,,,,,
1717571977.810506,74.000000,1.000000,4329.743652,4344.589844,4325.589844,4339.615234,4344.487305,4335.743652,4326.538574,4329.820313,4315.256348,4325.846191,4425.461426,4445.692383,4321.820313,4383.256348,6022.000000,0.000000,4.000000,,,,0.000000,4.000000,4.000000,4.000000,4.000000,4.000000,4.000000,4.000000,4.000000,4.000000,4.000000,4.000000,4.000000,4.000000,4.000000,100.000000,,,,,,,,,,,,,,,,,,,,,,,,,,,,,,,,,,,,,,,,,,,,,,,,,,,,,,,,,,,,,,,,,,,,0.000000,0.000000,1.000000,0.000000,512.000000,1.000000,,,,,,,,,,,,,,,,,,,,,,,,,,,,,,,,,,,,,,,,,,,,,,,,,,,,,,,,,,,,,,,,,,,,,,
1717571977.818314,75.000000,1.000000,4329.358887,4346.563965,4325.051270,4341.922852,4345.384766,4333.230957,4325.897461,4330.179688,4314.230957,4324.538574,4425.436035,4445.846191,4321.384766,4383.666504,5793.000000,0.000000,4.000000,,,,0.000000,4.000000,4.000000,4.000000,4.000000,4.000000,4.000000,4.000000,4.000000,4.000000,4.000000,4.000000,4.000000,4.000000,4.000000,100.000000,,,,,,,,,,,,,,,,,,,,,,,,,,,,,,,,,,,,,,,,,,,,,,,,,,,,,,,,,,,,,,,,,,,,,,,,,,,,,,,,,,,,,,,,,,,,,,,,,,,,,,,,,,,,,,,,,,,,,,,,,,,,,,,,,,,,,,,,,,,,,,,
1717571977.826122,76.000000,1.000000,4328.974121,4348.538574,4324.512695,4344.230957,4346.282227,4330.717773,4325.256348,4330.538574,4313.205078,4323.230957,4425.410156,4446.000000,4320.948730,4384.077148,6669.000000,0.000000,4.000000,,,,0.000000,4.000000,4.000000,4.000000,4.000000,4.000000,4.000000,4.000000,4.000000,4.000000,4.000000,4.000000,4.000000,4.000000,4.000000,100.000000,,,,,,,,,,,,,,,,,19.000000,0.000000,0.410003,-0.532715,-0.358154,-0.647949,0.986326,0.029911,0.174582,-34.566326,-31.264481,25.292297,,,,,,,,,,,,,,,,,,,,,,,,,,,,,,,,,,,,,,,,,,,,,,,,,,,,,,,,,,,,,,,,,,,,,,,,,,,,,,,,,,,,,,,,,,,,,,,,,,,,,,,,,,,,,,,,,,,
1717571977.833930,77.000000,0.000000,4328.589844,4350.512695,4323.974121,4346.538574,4347.179688,4328.205078,4324.615234,4330.897461,4312.179688,4321.922852,4425.384766,4446.153809,4320.512695,4384.487305,6758.000000,0.000000,4.000000,,,,0.000000,4.000000,4.000000,4.000000,4.000000,4.000000,4.000000,4.000000,4.000000,4.000000,4.000000,4.000000,4.000000,4.000000,4.000000,100.000000,,,,,,,,,,,,,,,,,,,,,,,,,,,,,,,,,,,,,,,,,,,,,,,,,,,,,,,,,,,,,,,,,,,,,,,,,,,,,,,,,,,,,,,,,,,,,,,,,,,,,,,,,,,,,,,,,,,,,,,,,,,,,,,,,,,,,,,,,,,,,,,
1717571977.841738,78.000000,1.000000,4326.367676,4342.563965,4323.504395,4341.538574,4344.700684,4327.563965,4322.222168,4331.324707,4314.914551,4321.581055,4428.333496,4444.786133,4323.034180,4382.222168,6022.000000,0.000000,4.000000,,,,0.000000,4.000000,4.000000,4.000000,4.000000,4.000000,4.000000,4.000000,4.000000,4.000000,4.000000,4.000000,4.000000,4.000000,4.000000,100.000000,,,,,,,,,,,,,,,,,,,,,,,,,,,,,1.000000,0.000000,0.000000,,,,,,,,,,,,,,,,,,,,,,,,,,,,,,,,,,,,,0.000000,0.000000,64.000000,0.132038,1.000000,0.000000,2.675981,0.824016,0.681406,0.232003,0.117944,3.160287,0.875052,0.757670,0.256680,0.123112,1.552572,0.426057,0.424426,0.143363,0.084202,3.149904,1.008366,0.809558,0.359354,0.169247,0.749006,0.501275,0.205906,0.133155,0.060253,5.610687,1.883087,1.044312,0.335254,0.227454,2.457516,0.813976,0.499106,0.231839,0.156490,1.932164,0.969506,0.425056,0.375266,0.193256,4.188590,2.107658,0.734833,0.655691,0.306568,2.205693,0.805194,0.443885,0.178947,0.132907,2.094954,0.684033,0.409182,0.189810,0.157968,3.165902,0.896786,0.704280,0.229710,0.163311,6.412565,3.061197,1.233371,1.051545,0.451508,2.395505,0.777715,0.607883,0.191247,0.126260
1717571977.849546,79.000000,1.000000,4324.145508,4334.615234,4323.034180,4336.538574,4342.222168,4326.922852,4319.829102,4331.751953,4317.649414,4321.239258,4431.282227,4443.418945,4325.555664,4379.957031,5850.000000,0.000000,4.000000,,,,0.000000,4.000000,4.000000,4.000000,4.000000,4.000000,4.000000,4.000000,4.000000,4.000000,4.000000,4.000000,4.000000,4.000000,4.000000,100.000000,,,,,,,,,,,,,,,,,,,,,,,,,,,,,,,,,,,,,,,,,,,,,,,,,,,,,,,,,,,,,,,,,,,,,,,,,,,,,,,,,,,,,,,,,,,,,,,,,,,,,,,,,,,,,,,,,,,,,,,,,,,,,,,,,,,,,,,,,,,,,,,
1717571977.857354,80.000000,0.000000,4321.922852,4326.666504,4322.563965,4331.538574,4339.743652,4326.282227,4317.436035,4332.179688,4320.384766,4320.897461,4434.230957,4442.051270,4328.077148,4377.692383,6686.000000,0.000000,4.000000,,,,0.000000,4.000000,4.000000,4.000000,4.000000,4.000000,4.000000,4.000000,4.000000,4.000000,4.000000,4.000000,4.000000,4.000000,4.000000,100.000000,,,,,,,,,,,,,,,,,20.000000,0.000000,0.409880,-0.532776,-0.358093,-0.648010,0.984861,0.007936,0.174094,-34.310390,-31.169230,25.441761,,,,,,,,,,,,,,,,,,,,,,,,,,,,,,,,,,,,,,,,,,,,,,,,,,,,,,,,,,,,,,,,,,,,,,,,,,,,,,,,,,,,,,,,,,,,,,,,,,,,,,,,,,,,,,,,,,,
1717571977.865062,81.000000,0.000000,4333.077148,4340.000000,4326.410156,4332.563965,4345.000000,4331.410156,4325.256348,4340.000000,4326.922852,4322.179688,4424.102539,4447.948730,4325.897461,4385.769043,6758.000000,0.000000,4.000000,,,,0.000000,4.000000,4.000000,4.000000,4.000000,4.000000,4.000000,4.000000,4.000000,4.000000,4.000000,4.000000,4.000000,4.000000,4.000000,100.000000,,,,,,,,,,,,,,,,,,,,,,,,,,,,,,,,,,,,,,,,,,,,,,,,,,,,,,,,,,,,,,,,,,,,,,,,,,,,,,,,,,,,,,,,,,,,,,,,,,,,,,,,,,,,,,,,,,,,,,,,,,,,,,,,,,,,,,,,,,,,,,,
1717571977.873070,82.000000,1.000000,4334.127441,4340.192383,4327.208984,4333.737793,4345.374512,4332.164551,4326.040527,4340.611328,4327.347168,4323.338379,4425.779297,4449.506836,4327.450684,4387.085938,6722.461426,0.000000,4.000000,,,,0.000000,4.000000,4.000000,4.000000,4.000000,4.000000,4.000000,4.000000,4.000000,4.000000,4.000000,4.000000,4.000000,4.000000,4.000000,100.000000,,,,,,,,,,,,,,,,,,,,,,,,,,,,,,,,,,,,,,,,,,,,,,,,,,,,,,,,,,,,,,,,,,,,0.000000,0.000000,64.000000,0.132038,1.000000,0.000000,,,,,,,,,,,,,,,,,,,,,,,,,,,,,,,,,,,,,,,,,,,,,,,,,,,,,,,,,,,,,,,,,,,,,,
1717571977.880878,83.000000,1.000000,4335.177734,4340.384766,4328.007813,4334.911133,4345.749512,4332.918945,4326.824219,4341.222656,4327.770996,4324.497070,4427.455566,4451.064941,4329.003906,4388.402344,6686.922852,0.000000,4.000000,,,,0.000000,4.000000,4.000000,4.000000,4.000000,4.000000,4.000000,4.000000,4.000000,4.000000,4.000000,4.000000,4.000000,4.000000,4.000000,100.000000,,,,,,,,,,,,,,,,,,,,,,,,,,,,,,,,,,,,,,,,,,,,,,,,,,,,,,,,,,,,,,,,,,,,,,,,,,,,,,,,,,,,,,,,,,,,,,,,,,,,,,,,,,,,,,,,,,,,,,,,,,,,,,,,,,,,,,,,,,,,,,,
1717571977.888686,84.000000,1.000000,4336.228027,4340.577148,4328.806641,4336.084961,4346.124023,4333.673340,4327.608398,4341.834473,4328.195313,4325.655762,4429.132324,4452.623047,4330.557129,4389.718750,6651.384766,0.000000,4.000000,,,,0.000000,4.000000,4.000000,4.000000,4.000000,4.000000,4.000000,4.000000,4.000000,4.000000,4.000000,4.000000,4.000000,4.000000,4.000000,100.000000,,,,,,,,,,,,,,,,,21.000000,1.000000,0.409985,-0.532806,-0.358093,-0.647919,0.984984,0.013429,0.175070,-34.240696,-31.068640,25.462915,,,,,,,,,,,,,,,,,,,,,,,,,,,,,,,,,,,,,,,,,,,,,,,,,,,,,,,,,,,,,,,,,,,,,,,,,,,,,,,,,,,,,,,,,,,,,,,,,,,,,,,,,,,,,,,,,,,
1717571977.896494,85.000000,1.000000,4337.278320,4340.769043,4329.605469,4337.258301,4346.499023,4334.428223,4328.392578,4342.445801,4328.619141,4326.814453,4430.808594,4454.181641,4332.110352,4391.035645,6615.846191,0.000000,4.000000,,,,0.000000,4.000000,4.000000,4.000000,4.000000,4.000000,4.000000,4.000000,4.000000,4.000000,4.000000,4.000000,4.000000,4.000000,4.000000,100.000000,,,,,,,,,,,,,,,,,,,,,,,,,,,,,,,,,,,,,,,,,,,,,,,,,,,,,,,,,,,,,,,,,,,,,,,,,,,,,,,,,,,,,,,,,,,,,,,,,,,,,,,,,,,,,,,,,,,,,,,,,,,,,,,,,,,,,,,,,,,,,,,
1717571977.904302,86.000000,1.000000,4338.328613,4340.961426,4330.404297,4338.432129,4346.873535,4335.182617,4329.176758,4343.057129,4329.043457,4327.973145,4432.485352,4455.739746,4333.663574,4392.352051,6580.307617,0.000000,4.000000,,,,0.000000,4.000000,4.000000,4.000000,4.000000,4.000000,4.000000,4.000000,4.000000,4.000000,4.000000,4.000000,4.000000,4.000000,4.000000,100.000000,,,,,,,,,,,,,,,,,,,,,,,,,,,,,,,,,,,,,,,,,,,,,,,,,,,,,,,,,,,,,,,,,,,,0.000000,0.000000,64.000000,0.132038,1.000000,0.000000,,,,,,,,,,,,,,,,,,,,,,,,,,,,,,,,,,,,,,,,,,,,,,,,,,,,,,,,,,,,,,,,,,,,,,
1717571977.912110,87.000000,1.000000,4339.378906,4341.153809,4331.203125,4339.605469,4347.248535,4335.937012,4329.960449,4343.668457,4329.467285,4329.132324,4434.161621,4457.297852,4335.216797,4393.668457,6544.769043,0.000000,4.000000,,,,0.000000,4.000000,4.000000,4.000000,4.000000,4.000000,4.000000,4.000000,4.000000,4.000000,4.000000,4.000000,4.000000,4.000000,4.000000,100.000000,,,,,,,,,,,,,,,,,,,,,,,,,,,,,,,,,,,,,,,,,,,,,,,,,,,,,,,,,,,,,,,,,,,,,,,,,,,,,,,,,,,,,,,,,,,,,,,,,,,,,,,,,,,,,,,,,,,,,,,,,,,,,,,,,,,,,,,,,,,,,,,
1717571977.919918,88.000000,1.000000,4340.429199,4341.346191,4332.001953,4340.779297,4347.623047,4336.691406,4330.744629,4344.280273,4329.891602,4330.291016,4435.838379,4458.855957,4336.770020,4394.985352,6509.230957,0.000000,4.000000,,,,0.000000,4.000000,4.000000,4.000000,4.000000,4.000000,4.000000,4.000000,4.000000,4.000000,4.000000,4.000000,4.000000,4.000000,4.000000,100.000000,,,,,,,,,,,,,,,,,22.000000,1.000000,0.410090,-0.532837,-0.358093,-0.647827,0.985106,0.018923,0.176047,-34.170998,-30.968050,25.484068,,,,,,,,,,,,,,,,,,,,,,,,,,,,,,,,,,,,,,,,,,,,,,,,,,,,,,,,,,,,,,,,,,,,,,,,,,,,,,,,,,,,,,,,,,,,,,,,,,,,,,,,,,,,,,,,,,,
1717571977.927726,89.000000,1.000000,4341.479492,4341.538574,4332.800781,4341.952637,4347.998047,4337.445801,4331.528809,4344.891602,4330.315430,4331.449707,4437.514648,4460.414063,4338.323242,4396.301758,6473.692383,0.000000,4.000000,,,,0.000000,4.000000,4.000000,4.000000,4.000000,4.000000,4.000000,4.000000,4.000000,4.000000,4.000000,4.000000,4.000000,4.000000,4.000000,100.000000,,,,,,,,,,,,,,,,,,,,,,,,,,,,,,,,,,,,,,,,,,,,,,,,,,,,,,,,,,,,,,,,,,,,,,,,,,,,,,,,,,,,,,,,,,,,,,,,,,,,,,,,,,,,,,,,,,,,,,,,,,,,,,,,,,,,,,,,,,,,,,,
1717571977.935534,90.000000,1.000000,4342.529785,4341.730957,4333.599609,4343.126465,4348.372559,4338.200195,4332.312500,4345.502930,4330.739746,4332.608398,4439.191406,4461.972168,4339.876953,4397.618164,6438.153809,0.000000,4.000000,,,,0.000000,4.000000,4.000000,4.000000,4.000000,4.000000,4.000000,4.000000,4.000000,4.000000,4.000000,4.000000,4.000000,4.000000,4.000000,100.000000,,,,,,,,,,,,,,,,,,,,,,,,,,,,,,,,,,,,,,,,,,,,,,,,,,,,,,,,,,,,,,,,,,,,0.000000,0.000000,64.000000,0.132038,1.000000,0.000000,,,,,,,,,,,,,,,,,,,,,,,,,,,,,,,,,,,,,,,,,,,,,,,,,,,,,,,,,,,,,,,,,,,,,,
1717571977.943342,91.000000,1.000000,4343.580078,4341.922852,4334.398438,4344.299805,4348.747559,4338.954590,4333.096680,4346.114258,4331.163574,4333.767090,4440.867676,4463.530762,4341.430176,4398.935059,6402.615234,0.000000,4.000000,,,,0.000000,4.000000,4.000000,4.000000,4.000000,4.000000,4.000000,4.000000,4.000000,4.000000,4.000000,4.000000,4.000000,4.000000,4.000000,100.000000,,,,,,,,,,,,,,,,,,,,,,,,,,,,,,,,,,,,,,,,,,,,,,,,,,,,,,,,,,,,,,,,,,,,,,,,,,,,,,,,,,,,,,,,,,,,,,,,,,,,,,,,,,,,,,,,,,,,,,,,,,,,,,,,,,,,,,,,,,,,,,,
1717571977.951150,92.000000,1.000000,4344.630371,4342.115234,4335.197266,4345.473145,4349.122070,4339.708984,4333.880859,4346.726074,4331.587891,4334.926270,4442.544434,4465.088867,4342.983398,4400.251465,6367.077148,0.000000,4.000000,,,,0.000000,4.000000,4.000000,4.000000,4.000000,4.000000,4.000000,4.000000,4.000000,4.000000,4.000000,4.000000,4.000000,4.000000,4.000000,100.000000,,,,,,,,,,,,,,,,,23.000000,1.000000,0.410195,-0.532867,-0.358093,-0.647736,0.985228,0.024417,0.177024,-34.101303,-30.867458,25.505222,,,,,,,,,,,,,,,,,,,,,,,,,,,,,,,,,,,,,,,,,,,,,,,,,,,,,,,,,,,,,,,,,,,,,,,,,,,,,,,,,,,,,,,,,,,,,,,,,,,,,,,,,,,,,,,,,,,
1717571977.958957,93.000000,1.000000,4345.680664,4342.307617,4335.996094,4346.646973,4349.497070,4340.463379,4334.664551,4347.337402,4332.011719,4336.084961,4444.220703,4466.646973,4344.536621,4401.567871,6331.538574,0.000000,4.000000,,,,0.000000,4.000000,4.000000,4.000000,4.000000,4.000000,4.000000,4.000000,4.000000,4.000000,4.000000,4.000000,4.000000,4.000000,4.000000,100.000000,,,,,,,,,,,,,,,,,,,,,,,,,,,,,,,,,,,,,,,,,,,,,,,,,,,,,,,,,,,,,,,,,,,,,,,,,,,,,,,,,,,,,,,,,,,,,,,,,,,,,,,,,,,,,,,,,,,,,,,,,,,,,,,,,,,,,,,,,,,,,,,
1717571977.966765,94.000000,1.000000,4346.730957,4342.500000,4336.794922,4347.820313,4349.871582,4341.217773,4335.448730,4347.948730,4332.436035,4337.243652,4445.897461,4468.205078,4346.089844,4402.884766,6296.000000,0.000000,4.000000,,,,0.000000,4.000000,4.000000,4.000000,4.000000,4.000000,4.000000,4.000000,4.000000,4.000000,4.000000,4.000000,4.000000,4.000000,4.000000,100.000000,,,,,,,,,,,,,,,,,,,,,,,,,,,,,1.000000,0.000000,0.000000,,,,,,,,,,,,,,,,,,,,,,,,,,,,,,,,,,,,,0.000000,0.000000,64.000000,0.122353,1.000000,0.000000,1.196404,0.524483,0.321462,0.134023,0.080940,1.418624,0.433343,0.322041,0.133998,0.067444,0.682703,0.321211,0.233251,0.086820,0.067803,2.234088,1.034758,0.610321,0.300174,0.155475,0.872239,0.528941,0.235244,0.106501,0.054611,2.877392,1.083110,0.543719,0.180211,0.129743,2.062233,0.848352,0.415226,0.182806,0.126013,1.604560,0.867841,0.370831,0.200870,0.127011,2.473451,1.237431,0.482688,0.338600,0.189709,1.754473,0.859857,0.403896,0.200491,0.133151,1.847071,0.696342,0.282217,0.132075,0.132787,2.426347,0.864629,0.414803,0.172960,0.136121,2.553537,1.620022,0.589674,0.393825,0.208313,1.933226,0.805797,0.390803,0.157260,0.112601
1717571977.974573,95.000000,1.000000,4347.781250,4342.692383,4337.593750,4348.994141,4350.246582,4341.972168,4336.232910,4348.560059,4332.859863,4338.402344,4447.573730,4469.763184,4347.643066,4404.201172,6260.461426,0.000000,4.000000,,,,0.000000,4.000000,4.000000,4.000000,4.000000,4.000000,4.000000,4.000000,4.000000,4.000000,4.000000,4.000000,4.000000,4.000000,4.000000,100.000000,,,,,,,,,,,,,,,,,,,,,,,,,,,,,,,,,,,,,,,,,,,,,,,,,,,,,,,,,,,,,,,,,,,,,,,,,,,,,,,,,,,,,,,,,,,,,,,,,,,,,,,,,,,,,,,,,,,,,,,,,,,,,,,,,,,,,,,,,,,,,,,
1717571977.982381,96.000000,1.000000,4348.831543,4342.884766,4338.392578,4350.167480,4350.621094,4342.727051,4337.016602,4349.171387,4333.284180,4339.561035,4449.250488,4471.321289,4349.196289,4405.517578,6224.922852,0.000000,4.000000,,,,0.000000,4.000000,4.000000,4.000000,4.000000,4.000000,4.000000,4.000000,4.000000,4.000000,4.000000,4.000000,4.000000,4.000000,4.000000,100.000000,,,,,,,,,,,,,,,,,24.000000,0.000000,0.410300,-0.532898,-0.358093,-0.647644,0.985350,0.029911,0.178000,-34.031609,-30.766869,25.526377,,,,,,,,,,,,,,,,,,,,,,,,,,,,,,,,,,,,,,,,,,,,,,,,,,,,,,,,,,,,,,,,,,,,,,,,,,,,,,,,,,,,,,,,,,,,,,,,,,,,,,,,,,,,,,,,,,,
1717571977.990189,97.000000,1.000000,4349.881836,4343.077148,4339.191406,4351.341309,4350.996094,4343.481445,4337.800781,4349.783203,4333.708008,4340.719727,4450.927246,4472.879883,4350.749512,4406.834473,6189.384766,0.000000,4.000000,,,,0.000000,4.000000,4.000000,4.000000,4.000000,4.000000,4.000000,4.000000,4.000000,4.000000,4.000000,4.000000,4.000000,4.000000,4.000000,100.000000,,,,,,,,,,,,,,,,,,,,,,,,,,,,,,,,,,,,,,,,,,,,,,,,,,,,,,,,,,,,,,,,,,,,,,,,,,,,,,,,,,,,,,,,,,,,,,,,,,,,,,,,,,,,,,,,,,,,,,,,,,,,,,,,,,,,,,,,,,,,,,,
1717571977.997997,98.000000,1.000000,4350.932129,4343.269043,4339.990234,4352.514648,4351.370605,4344.235840,4338.584961,4350.394531,4334.132324,4341.878906,4452.603516,4474.437988,4352.302734,4408.150879,6153.846191,0.000000,4.000000,,,,0.000000,4.000000,4.000000,4.000000,4.000000,4.000000,4.000000,4.000000,4.000000,4.000000,4.000000,4.000000,4.000000,4.000000,4.000000,100.000000,,,,,,,,,,,,,,,,,,,,,,,,,,,,,,,,,,,,,,,,,,,,,,,,,,,,,,,,,,,,,,,,,,,,0.000000,0.000000,64.000000,0.122353,1.000000,0.000000,,,,,,,,,,,,,,,,,,,,,,,,,,,,,,,,,,,,,,,,,,,,,,,,,,,,,,,,,,,,,,,,,,,,,,
1717571978.005805,99.000000,1.000000,4351.982422,4343.461426,4340.789063,4353.688477,4351.745605,4344.990234,4339.368652,4351.005859,4334.556152,4343.037598,4454.280273,4475.996094,4353.855957,4409.467285,6118.307617,0.000000,4.000000,,,,0.000000,4.000000,4.000000,4.000000,4.000000,4.000000,4.000000,4.000000,4.000000,4.000000,4.000000,4.000000,4.000000,4.000000,4.000000,100.000000,,,,,,,,,,,,,,,,,,,,,,,,,,,,,,,,,,,,,,,,,,,,,,,,,,,,,,,,,,,,,,,,,,,,,,,,,,,,,,,,,,,,,,,,,,,,,,,,,,,,,,,,,,,,,,,,,,,,,,,,,,,,,,,,,,,,,,,,,,,,,,,
1717571978.013613,100.000000,1.000000,4353.032715,4343.653809,4341.587891,4354.861816,4352.120117,4345.744629,4340.152832,4351.617188,4334.980469,4344.196289,4455.956543,4477.554199,4355.409180,4410.784180,6082.769043,0.000000,4.000000,,,,0.000000,4.000000,4.000000,4.000000,4.000000,4.000000,4.000000,4.000000,4.000000,4.000000,4.000000,4.000000,4.000000,4.000000,4.000000,100.000000,,,,,,,,,,,,,,,,,25.000000,1.000000,0.410378,-0.532878,-0.358144,-0.647583,0.986408,0.029829,0.178082,-34.029980,-30.714529,25.507647,,,,,,,,,,,,,,,,,,,,,,,,,,,,,,,,,,,,,,,,,,,,,,,,,,,,,,,,,,,,,,,,,,,,,,,,,,,,,,,,,,,,,,,,,,,,,,,,,,,,,,,,,,,,,,,,,,,
1717571978.021421,101.000000,1.000000,4354.083008,4343.846191,4342.386719,4356.035645,4352.495117,4346.499023,4340.937012,4352.229004,4335.404297,4345.354980,4457.633301,4479.112305,4356.962402,4412.100586,6047.230957,0.000000,4.000000,,,,0.000000,4.000000,4.000000,4.000000,4.000000,4.000000,4.000000,4.000000,4.000000,4.000000,4.000000,4.000000,4.000000,4.000000,4.000000,100.000000,,,,,,,,,,,,,,,,,,,,,,,,,,,,,,,,,,,,,,,,,,,,,,,,,,,,,,,,,,,,,,,,,,,,,,,,,,,,,,,,,,,,,,,,,,,,,,,,,,,,,,,,,,,,,,,,,,,,,,,,,,,,,,,,,,,,,,,,,,,,,,,
1717571978.029229,102.000000,1.000000,4355.133301,4344.038574,4343.185547,4357.208984,4352.869629,4347.253418,4341.720703,4352.840332,4335.828613,4346.513672,4459.309570,4480.670410,4358.515625,4413.416992,6011.692383,0.000000,4.000000,,,,0.000000,4.000000,4.000000,4.000000,4.000000,4.000000,4.000000,4.000000,4.000000,4.000000,4.000000,4.000000,4.000000,4.000000,4.000000,100.000000,,,,,,,,,,,,,,,,,,,,,,,,,,,,,,,,,,,,,,,,,,,,,,,,,,,,,,,,,,,,,,,,,,,,0.000000,0.000000,64.000000,0.122353,1.000000,0.000000,,,,,,,,,,,,,,,,,,,,,,,,,,,,,,,,,,,,,,,,,,,,,,,,,,,,,,,,,,,,,,,,,,,,,,
1717571978.037037,103.000000,1.000000,4356.183594,4344.230957,4343.984375,4358.382813,4353.244629,4348.007813,4342.504883,4353.451660,4336.252441,4347.672363,4460.986328,4482.229004,4360.068848,4414.733887,5976.153809,0.000000,4.000000,,,,0.000000,4.000000,4.000000,4.000000,4.000000,4.000000,4.000000,4.000000,4.000000,4.000000,4.000000,4.000000,4.000000,4.000000,4.000000,100.000000,,,,,,,,,,,,,,,,,,,,,,,,,,,,,,,,,,,,,,,,,,,,,,,,,,,,,,,,,,,,,,,,,,,,,,,,,,,,,,,,,,,,,,,,,,,,,,,,,,,,,,,,,,,,,,,,,,,,,,,,,,,,,,,,,,,,,,,,,,,,,,,
1717571978.044845,104.000000,1.000000,4357.233887,4344.422852,4344.783203,4359.556152,4353.619141,4348.762207,4343.289063,4354.062988,4336.676758,4348.831543,4462.662598,4483.787109,4361.622070,4416.050293,5940.615234,0.000000,4.000000,,,,0.000000,4.000000,4.000000,4.000000,4.000000,4.000000,4.000000,4.000000,4.000000,4.000000,4.000000,4.000000,4.000000,4.000000,4.000000,100.000000,,,,,,,,,,,,,,,,,26.000000,1.000000,0.410457,-0.532857,-0.358195,-0.647522,0.987466,0.029748,0.178163,-34.028351,-30.662189,25.488914,,,,,,,,,,,,,,,,,,,,,,,,,,,,,,,,,,,,,,,,,,,,,,,,,,,,,,,,,,,,,,,,,,,,,,,,,,,,,,,,,,,,,,,,,,,,,,,,,,,,,,,,,,,,,,,,,,,
1717571978.052653,105.000000,1.000000,4358.284180,4344.615234,4345.582031,4360.729980,4353.994141,4349.516602,4344.072754,4354.674316,4337.100586,4349.990234,4464.339355,4485.345215,4363.175781,4417.366699,5905.077148,0.000000,4.000000,,,,0.000000,4.000000,4.000000,4.000000,4.000000,4.000000,4.000000,4.000000,4.000000,4.000000,4.000000,4.000000,4.000000,4.000000,4.000000,100.000000,,,,,,,,,,,,,,,,,,,,,,,,,,,,,,,,,,,,,,,,,,,,,,,,,,,,,,,,,,,,,,,,,,,,,,,,,,,,,,,,,,,,,,,,,,,,,,,,,,,,,,,,,,,,,,,,,,,,,,,,,,,,,,,,,,,,,,,,,,,,,,,
1717571978.060461,106.000000,1.000000,4359.334473,4344.807617,4346.380859,4361.903320,4354.368652,4350.270996,4344.856934,4355.286133,4337.524414,4351.148926,4466.015625,4486.903320,4364.729004,4418.683594,5869.538574,0.000000,4.000000,,,,0.000000,4.000000,4.000000,4.000000,4.000000,4.000000,4.000000,4.000000,4.000000,4.000000,4.000000,4.000000,4.000000,4.000000,4.000000,100.000000,,,,,,,,,,,,,,,,,,,,,,,,,,,,,,,,,,,,,,,,,,,,,,,,,,,,,,,,,,,,,,,,,,,,0.000000,0.000000,64.000000,0.122353,1.000000,0.000000,,,,,,,,,,,,,,,,,,,,,,,,,,,,,,,,,,,,,,,,,,,,,,,,,,,,,,,,,,,,,,,,,,,,,,
1717571978.068269,107.000000,0.000000,4360.384766,4345.000000,4347.179688,4363.077148,4354.743652,4351.025879,4345.641113,4355.897461,4337.948730,4352.307617,4467.692383,4488.461426,4366.282227,4420.000000,5834.000000,0.000000,4.000000,,,,0.000000,4.000000,4.000000,4.000000,4.000000,4.000000,4.000000,4.000000,4.000000,4.000000,4.000000,4.000000,4.000000,4.000000,4.000000,100.000000,,,,,,,,,,,,,,,,,,,,,,,,,,,,,,,,,,,,,,,,,,,,,,,,,,,,,,,,,,,,,,,,,,,,,,,,,,,,,,,,,,,,,,,,,,,,,,,,,,,,,,,,,,,,,,,,,,,,,,,,,,,,,,,,,,,,,,,,,,,,,,,
1717571978.076177,108.000000,0.000000,4347.820313,4344.102539,4339.358887,4349.615234,4354.230957,4350.897461,4342.179688,4356.922852,4333.589844,4350.641113,4456.538574,4477.820313,4356.025879,4410.256348,6686.000000,0.000000,4.000000,,,,0.000000,4.000000,4.000000,4.000000,4.000000,4.000000,4.000000,4.000000,4.000000,4.000000,4.000000,4.000000,4.000000,4.000000,4.000000,100.000000,,,,,,,,,,,,,,,,,27.000000,1.000000,0.410535,-0.532837,-0.358246,-0.647461,0.988524,0.029667,0.178244,-34.026722,-30.609848,25.470184,,,,,,,,,,,,,,,,,,,,,,,,,,,,,,,,,,,,,,,,,,,,,,,,,,,,,,,,,,,,,,,,,,,,,,,,,,,,,,,,,,,,,,,,,,,,,,,,,,,,,,,,,,,,,,,,,,,
1717571978.083985,109.000000,0.000000,4352.436035,4353.717773,4342.436035,4362.307617,4354.615234,4356.282227,4344.615234,4353.846191,4340.897461,4357.051270,4447.948730,4475.512695,4355.897461,4411.666504,6758.000000,0.000000,4.000000,,,,0.000000,4.000000,4.000000,4.000000,4.000000,4.000000,4.000000,4.000000,4.000000,4.000000,4.000000,4.000000,4.000000,4.000000,4.000000,100.000000,,,,,,,,,,,,,,,,,,,,,,,,,,,,,,,,,,,,,,,,,,,,,,,,,,,,,,,,,,,,,,,,,,,,,,,,,,,,,,,,,,,,,,,,,,,,,,,,,,,,,,,,,,,,,,,,,,,,,,,,,,,,,,,,,,,,,,,,,,,,,,,
1717571978.092192,110.000000,1.000000,4352.471680,4353.856445,4342.374512,4362.230957,4354.328125,4356.189941,4344.574219,4353.907715,4340.507813,4357.246094,4447.969238,4475.707520,4356.702637,4411.769043,6695.279785,0.000000,4.000000,,,,0.000000,4.000000,4.000000,4.000000,4.000000,4.000000,4.000000,4.000000,4.000000,4.000000,4.000000,4.000000,4.000000,4.000000,4.000000,100.000000,,,,,,,,,,,,,,,,,,,,,,,,,,,,,1.000000,0.000000,0.000000,,,,,,,,,,,,,,,,,,,,,,,,,,,,,,,,,,,,,0.000000,0.000000,64.000000,0.146221,1.000000,0.000000,0.838329,0.576973,0.279519,0.145456,0.083574,0.694573,0.334149,0.191072,0.106367,0.051112,0.571417,0.394975,0.231336,0.101114,0.073362,1.882635,1.212326,0.638495,0.323594,0.161439,1.173145,0.635471,0.275126,0.102569,0.056617,1.826491,0.872436,0.402596,0.128422,0.090805,2.031407,0.966447,0.420356,0.174484,0.111632,2.018807,0.958741,0.383305,0.151665,0.109433,2.049792,0.881897,0.352797,0.199370,0.143121,2.031023,1.130505,0.476527,0.256484,0.155030,1.926475,0.816338,0.278857,0.143158,0.140774,2.361440,1.026292,0.363036,0.195136,0.142173,2.132810,1.295249,0.533012,0.252258,0.169685,1.899427,0.989696,0.385760,0.190049,0.126352
1717571978.100000,111.000000,1.000000,4352.507813,4353.994629,4342.312988,4362.153809,4354.041016,4356.097656,4344.533203,4353.969238,4340.118164,4357.440918,4447.989746,4475.902344,4357.507813,4411.871582,6632.560059,0.000000,4.000000,,,,0.000000,4.000000,4.000000,4.000000,4.000000,4.000000,4.000000,4.000000,4.000000,4.000000,4.000000,4.000000,4.000000,4.000000,4.000000,100.000000,,,,,,,,,,,,,,,,,,,,,,,,,,,,,,,,,,,,,,,,,,,,,,,,,,,,,,,,,,,,,,,,,,,,,,,,,,,,,,,,,,,,,,,,,,,,,,,,,,,,,,,,,,,,,,,,,,,,,,,,,,,,,,,,,,,,,,,,,,,,,,,
1717571978.107808,112.000000,1.000000,4352.543457,4354.133301,4342.251465,4362.077148,4353.753906,4356.005371,4344.492188,4354.030762,4339.728027,4357.635742,4448.010254,4476.097656,4358.312988,4411.974121,6569.839844,0.000000,4.000000,,,,0.000000,4.000000,4.000000,4.000000,4.000000,4.000000,4.000000,4.000000,4.000000,4.000000,4.000000,4.000000,4.000000,4.000000,4.000000,100.000000,,,,,,,,,,,,,,,,,28.000000,1.000000,0.410613,-0.532817,-0.358297,-0.647400,0.989582,0.029585,0.178326,-34.025093,-30.557508,25.451452,,,,,,,,,,,,,,,,,,,,,,,,,,,,,,,,,,,,,,,,,,,,,,,,,,,,,,,,,,,,,,,,,,,,,,,,,,,,,,,,,,,,,,,,,,,,,,,,,,,,,,,,,,,,,,,,,,,
1717571978.115616,113.000000,1.000000,4352.579590,4354.271973,4342.189941,4362.000000,4353.466797,4355.912598,4344.451172,4354.092285,4339.338379,4357.830566,4448.030762,4476.292480,4359.118164,4412.077148,6507.120117,0.000000,4.000000,,,,0.000000,4.000000,4.000000,4.000000,4.000000,4.000000,4.000000,4.000000,4.000000,4.000000,4.000000,4.000000,4.000000,4.000000,4.000000,100.000000,,,,,,,,,,,,,,,,,,,,,,,,,,,,,,,,,,,,,,,,,,,,,,,,,,,,,,,,,,,,,,,,,,,,,,,,,,,,,,,,,,,,,,,,,,,,,,,,,,,,,,,,,,,,,,,,,,,,,,,,,,,,,,,,,,,,,,,,,,,,,,,
1717571978.123424,114.000000,1.000000,4352.615234,4354.410156,4342.128418,4361.922852,4353.179688,4355.820313,4344.410156,4354.153809,4338.948730,4358.025879,4448.051270,4476.487305,4359.922852,4412.179688,6444.399902,0.000000,4.000000,,,,0.000000,4.000000,4.000000,4.000000,4.000000,4.000000,4.000000,4.000000,4.000000,4.000000,4.000000,4.000000,4.000000,4.000000,4.000000,100.000000,,,,,,,,,,,,,,,,,,,,,,,,,,,,,,,,,,,,,,,,,,,,,,,,,,,,,,,,,,,,,,,,,,,,0.000000,0.000000,64.000000,0.146221,1.000000,0.000000,,,,,,,,,,,,,,,,,,,,,,,,,,,,,,,,,,,,,,,,,,,,,,,,,,,,,,,,,,,,,,,,,,,,,,
1717571978.131232,115.000000,1.000000,4352.651367,4354.548828,4342.066895,4361.846191,4352.892090,4355.728027,4344.369141,4354.215332,4338.559082,4358.220703,4448.071777,4476.682129,4360.728027,4412.282227,6381.680176,0.000000,4.000000,,,,0.000000,4.000000,4.000000,4.000000,4.000000,4.000000,4.000000,4.000000,4.000000,4.000000,4.000000,4.000000,4.000000,4.000000,4.000000,100.000000,,,,,,,,,,,,,,,,,,,,,,,,,,,,,,,,,,,,,,,,,,,,,,,,,,,,,,,,,,,,,,,,,,,,,,,,,,,,,,,,,,,,,,,,,,,,,,,,,,,,,,,,,,,,,,,,,,,,,,,,,,,,,,,,,,,,,,,,,,,,,,,
1717571978.139040,116.000000,1.000000,4352.687012,4354.687012,4342.005371,4361.769043,4352.604980,4355.635742,4344.328125,4354.276855,4338.169434,4358.415527,4448.092285,4476.876953,4361.533203,4412.384766,6318.959961,0.000000,4.000000,,,,0.000000,4.000000,4.000000,4.000000,4.000000,4.000000,4.000000,4.000000,4.000000,4.000000,4.000000,4.000000,4.000000,4.000000,4.000000,100.000000,,,,,,,,,,,,,,,,,29.000000,1.000000,0.410692,-0.532796,-0.358348,-0.647339,0.990640,0.029504,0.178407,-34.023464,-30.505169,25.432722,,,,,,,,,,,,,,,,,,,,,,,,,,,,,,,,,,,,,,,,,,,,,,,,,,,,,,,,,,,,,,,,,,,,,,,,,,,,,,,,,,,,,,,,,,,,,,,,,,,,,,,,,,,,,,,,,,,
1717571978.146848,117.000000,1.000000,4352.723145,4354.825684,4341.943359,4361.692383,4352.317871,4355.543457,4344.287109,4354.338379,4337.779297,4358.610352,4448.112793,4477.071777,4362.338379,4412.487305,6256.240234,0.000000,4.000000,,,,0.000000,4.000000,4.000000,4.000000,4.000000,4.000000,4.000000,4.000000,4.000000,4.000000,4.000000,4.000000,4.000000,4.000000,4.000000,100.000000,,,,,,,,,,,,,,,,,,,,,,,,,,,,,,,,,,,,,,,,,,,,,,,,,,,,,,,,,,,,,,,,,,,,,,,,,,,,,,,,,,,,,,,,,,,,,,,,,,,,,,,,,,,,,,,,,,,,,,,,,,,,,,,,,,,,,,,,,,,,,,,
1717571978.154656,118.000000,1.000000,4352.758789,4354.963867,4341.881836,4361.615234,4352.030762,4355.451172,4344.246094,4354.399902,4337.389648,4358.805176,4448.133301,4477.266602,4363.143555,4412.589844,6193.520020,0.000000,4.000000,,,,0.000000,4.000000,4.000000,4.000000,4.000000,4.000000,4.000000,4.000000,4.000000,4.000000,4.000000,4.000000,4.000000,4.000000,4.000000,100.000000,,,,,,,,,,,,,,,,,,,,,,,,,,,,,,,,,,,,,,,,,,,,,,,,,,,,,,,,,,,,,,,,,,,,0.000000,0.000000,64.000000,0.146221,1.000000,0.000000,,,,,,,,,,,,,,,,,,,,,,,,,,,,,,,,,,,,,,,,,,,,,,,,,,,,,,,,,,,,,,,,,,,,,,
1717571978.162464,119.000000,1.000000,4352.794922,4355.102539,4341.820313,4361.538574,4351.743652,4355.358887,4344.205078,4354.461426,4337.000000,4359.000000,4448.153809,4477.461426,4363.948730,4412.692383,6130.799805,0.000000,4.000000,,,,0.000000,4.000000,4.000000,4.000000,4.000000,4.000000,4.000000,4.000000,4.000000,4.000000,4.000000,4.000000,4.000000,4.000000,4.000000,100.000000,,,,,,,,,,,,,,,,,,,,,,,,,,,,,,,,,,,,,,,,,,,,,,,,,,,,,,,,,,,,,,,,,,,,,,,,,,,,,,,,,,,,,,,,,,,,,,,,,,,,,,,,,,,,,,,,,,,,,,,,,,,,,,,,,,,,,,,,,,,,,,,
1717571978.170272,120.000000,1.000000,4352.830566,4355.241211,4341.758789,4361.461426,4351.456543,4355.266602,4344.164063,4354.522949,4336.610352,4359.194824,4448.174316,4477.656250,4364.753906,4412.794922,6068.080078,0.000000,4.000000,,,,0.000000,4.000000,4.000000,4.000000,4.000000,4.000000,4.000000,4.000000,4.000000,4.000000,4.000000,4.000000,4.000000,4.000000,4.000000,100.000000,,,,,,,,,,,,,,,,,30.000000,0.000000,0.410770,-0.532776,-0.358398,-0.647278,0.991698,0.029423,0.178489,-34.021835,-30.452827,25.413990,,,,,,,,,,,,,,,,,,,,,,,,,,,,,,,,,,,,,,,,,,,,,,,,,,,,,,,,,,,,,,,,,,,,,,,,,,,,,,,,,,,,,,,,,,,,,,,,,,,,,,,,,,,,,,,,,,,
1717571978.178080,121.000000,1.000000,4352.866699,4355.379395,4341.697266,4361.384766,4351.169434,4355.174316,4344.123047,4354.584473,4336.220703,4359.389648,4448.194824,4477.851074,4365.559082,4412.897461,6005.359863,0.000000,4.000000,,,,0.000000,4.000000,4.000000,4.000000,4.000000,4.000000,4.000000,4.000000,4.000000,4.000000,4.000000,4.000000,4.000000,4.000000,4.000000,100.000000,,,,,,,,,,,,,,,,,,,,,,,,,,,,,,,,,,,,,,,,,,,,,,,,,,,,,,,,,,,,,,,,,,,,,,,,,,,,,,,,,,,,,,,,,,,,,,,,,,,,,,,,,,,,,,,,,,,,,,,,,,,,,,,,,,,,,,,,,,,,,,,
1717571978.185888,122.000000,1.000000,4352.902344,4355.518066,4341.635742,4361.307617,4350.881836,4355.082031,4344.082031,4354.645996,4335.830566,4359.584473,4448.215332,4478.046387,4366.364258,4413.000000,5942.640137,0.000000,4.000000,,,,0.000000,4.000000,4.000000,4.000000,4.000000,4.000000,4.000000,4.000000,4.000000,4.000000,4.000000,4.000000,4.000000,4.000000,4.000000,100.000000,,,,,,,,,,,,,,,,,,,,,,,,,,,,,,,,,,,,,,,,,,,,,,,,,,,,,,,,,,,,,,,,,,,,0.000000,0.000000,64.000000,0.146221,1.000000,0.000000,,,,,,,,,,,,,,,,,,,,,,,,,,,,,,,,,,,,,,,,,,,,,,,,,,,,,,,,,,,,,,,,,,,,,,
1717571978.193696,123.000000,1.000000,4352.938477,4355.656250,4341.574219,4361.230957,4350.594727,4354.989746,4344.041016,4354.707520,4335.440918,4359.779297,4448.235840,4478.241211,4367.169434,4413.102539,5879.919922,0.000000,4.000000,,,,0.000000,4.000000,4.000000,4.000000,4.000000,4.000000,4.000000,4.000000,4.000000,4.000000,4.000000,4.000000,4.000000,4.000000,4.000000,100.000000,,,,,,,,,,,,,,,,,,,,,,,,,,,,,,,,,,,,,,,,,,,,,,,,,,,,,,,,,,,,,,,,,,,,,,,,,,,,,,,,,,,,,,,,,,,,,,,,,,,,,,,,,,,,,,,,,,,,,,,,,,,,,,,,,,,,,,,,,,,,,,,
1717571978.201504,124.000000,1.000000,4352.974121,4355.794922,4341.512695,4361.153809,4350.307617,4354.897461,4344.000000,4354.769043,4335.051270,4359.974121,4448.256348,4478.436035,4367.974121,4413.205078,5817.200195,0.000000,4.000000,,,,0.000000,4.000000,4.000000,4.000000,4.000000,4.000000,4.000000,4.000000,4.000000,4.000000,4.000000,4.000000,4.000000,4.000000,4.000000,100.000000,,,,,,,,,,,,,,,,,31.000000,0.000000,0.410770,-0.532776,-0.358398,-0.647278,0.991698,0.029423,0.178489,-34.121063,-30.680071,25.725552,,,,,,,,,,,,,,,,,,,,,,,,,,,,,,,,,,,,,,,,,,,,,,,,,,,,,,,,,,,,,,,,,,,,,,,,,,,,,,,,,,,,,,,,,,,,,,,,,,,,,,,,,,,,,,,,,,,
1717571978.209312,125.000000,1.000000,4353.010254,4355.933105,4341.451172,4361.077148,4350.020508,4354.805176,4343.958984,4354.830566,4334.661621,4360.169434,4448.276855,4478.630859,4368.779297,4413.307617,5754.479980,0.000000,4.000000,,,,0.000000,4.000000,4.000000,4.000000,4.000000,4.000000,4.000000,4.000000,4.000000,4.000000,4.000000,4.000000,4.000000,4.000000,4.000000,100.000000,,,,,,,,,,,,,,,,,,,,,,,,,,,,,,,,,,,,,,,,,,,,,,,,,,,,,,,,,,,,,,,,,,,,,,,,,,,,,,,,,,,,,,,,,,,,,,,,,,,,,,,,,,,,,,,,,,,,,,,,,,,,,,,,,,,,,,,,,,,,,,,
1717571978.217120,126.000000,1.000000,4353.046387,4356.071777,4341.389648,4361.000000,4349.733398,4354.712891,4343.917969,4354.892090,4334.271973,4360.364258,4448.297363,4478.825684,4369.584473,4413.410156,5691.759766,0.000000,4.000000,,,,0.000000,4.000000,4.000000,4.000000,4.000000,4.000000,4.000000,4.000000,4.000000,4.000000,4.000000,4.000000,4.000000,4.000000,4.000000,100.000000,-1.000000,25.000000,3.000000,1.000000,1.000000,3.000000,3.000000,1.000000,3.000000,1.000000,3.000000,1.000000,1.000000,3.000000,1.000000,1.000000,,,,,,,,,,,,,1.000000,0.000000,0.000000,,,,,,,,,,,,,,,,,,,,,,,,,,,,,,,,,,,,,0.000000,0.000000,1.000000,0.000000,512.000000,1.000000,0.981182,0.725407,0.358610,0.187435,0.101528,0.515664,0.363657,0.193171,0.110228,0.054260,0.644304,0.476744,0.270856,0.119664,0.081260,1.716526,1.350993,0.710214,0.352540,0.170698,1.439960,0.712537,0.300129,0.106580,0.057899,1.546519,0.886310,0.406323,0.122567,0.080482,1.961722,1.018269,0.428431,0.163479,0.098496,2.477304,1.040779,0.380373,0.136157,0.099585,2.138016,0.776102,0.284422,0.153733,0.125077,2.596695,1.408210,0.594384,0.318198,0.183904,1.910552,0.861040,0.272031,0.151853,0.149529,2.361555,1.132141,0.377466,0.214960,0.151172,2.194403,1.213071,0.499782,0.223900,0.163365,1.949724,1.131439,0.446452,0.225414,0.145126
1717571978.224928,127.000000,1.000000,4353.082031,4356.210449,4341.328125,4360.922852,4349.446289,4354.620605,4343.876953,4354.953613,4333.881836,4360.559082,4448.317871,4479.020508,4370.389648,4413.512695,5629.040039,0.000000,4.000000,,,,0.000000,4.000000,4.000000,4.000000,4.000000,4.000000,4.000000,4.000000,4.000000,4.000000,4.000000,4.000000,4.000000,4.000000,4.000000,100.000000,,,,,,,,,,,,,,,,,,,,,,,,,,,,,,,,,,,,,,,,,,,,,,,,,,,,,,,,,,,,,,,,,,,,,,,,,,,,,,,,,,,,,,,,,,,,,,,,,,,,,,,,,,,,,,,,,,,,,,,,,,,,,,,,,,,,,,,,,,,,,,,
1717571978.232736,0.000000,1.000000,4353.118164,4356.348633,4341.266602,4360.846191,4349.159180,4354.528320,4343.835938,4355.015625,4333.492188,4360.753906,4448.338379,4479.215332,4371.194824,4413.615234,3979.000000,0.000000,4.000000,,,,0.000000,4.000000,4.000000,4.000000,4.000000,4.000000,4.000000,4.000000,4.000000,4.000000,4.000000,4.000000,4.000000,4.000000,4.000000,100.000000,,,,,,,,,,,,,,,,,0.000000,1.000000,0.410683,-0.532867,-0.358307,-0.647308,0.985350,0.022830,0.178733,-34.091228,-30.725464,25.684124,,,,,,,,,,,,,,,,,,,,,,,,,,,,,,,,,,,,,,,,,,,,,,,,,,,,,,,,,,,,,,,,,,,,,,,,,,,,,,,,,,,,,,,,,,,,,,,,,,,,,,,,,,,,,,,,,,,
1717571978.240544,1.000000,1.000000,4353.153809,4356.487305,4341.205078,4360.769043,4348.871582,4354.436035,4343.794922,4355.077148,4333.102539,4360.948730,4448.358887,4479.410156,4372.000000,4413.717773,5465.000000,0.000000,4.000000,,,,0.000000,4.000000,4.000000,4.000000,4.000000,4.000000,4.000000,4.000000,4.000000,4.000000,4.000000,4.000000,4.000000,4.000000,4.000000,100.000000,,,,,,,,,,,,,,,,,,,,,,,,,,,,,,,,,,,,,,,,,,,,,,,,,,,,,,,,,,,,,,,,,,,,,,,,,,,,,,,,,,,,,,,,,,,,,,,,,,,,,,,,,,,,,,,,,,,,,,,,,,,,,,,,,,,,,,,,,,,,,,,
1717571978.248352,2.000000,1.000000,4353.189941,4356.625488,4341.143555,4360.692383,4348.584473,4354.343750,4343.753906,4355.138672,4332.712891,4361.143555,4448.379395,4479.604980,4372.805176,4413.820313,3839.000000,0.000000,4.000000,,,,0.000000,4.000000,4.000000,4.000000,4.000000,4.000000,4.000000,4.000000,4.000000,4.000000,4.000000,4.000000,4.000000,4.000000,4.000000,100.000000,,,,,,,,,,,,,,,,,,,,,,,,,,,,,,,,,,,,,,,,,,,,,,,,,,,,,,,,,,,,,,,,,,,,0.000000,0.000000,1.000000,0.000000,512.000000,1.000000,,,,,,,,,,,,,,,,,,,,,,,,,,,,,,,,,,,,,,,,,,,,,,,,,,,,,,,,,,,,,,,,,,,,,,
1717571978.256160,3.000000,1.000000,4353.225586,4356.764160,4341.082031,4360.615234,4348.297363,4354.251465,4343.712891,4355.200195,4332.323242,4361.338379,4448.399902,4479.799805,4373.610352,4413.922852,3532.000000,0.000000,4.000000,,,,0.000000,4.000000,4.000000,4.000000,4.000000,4.000000,4.000000,4.000000,4.000000,4.000000,4.000000,4.000000,4.000000,4.000000,4.000000,100.000000,,,,,,,,,,,,,,,,,,,,,,,,,,,,,,,,,,,,,,,,,,,,,,,,,,,,,,,,,,,,,,,,,,,,,,,,,,,,,,,,,,,,,,,,,,,,,,,,,,,,,,,,,,,,,,,,,,,,,,,,,,,,,,,,,,,,,,,,,,,,,,,
1717571978.263968,4.000000,1.000000,4353.261719,4356.902344,4341.020508,4360.538574,4348.010254,4354.159180,4343.671875,4355.261719,4331.933105,4361.533203,4448.420410,4479.994629,4374.415527,4414.025879,5218.000000,0.000000,4.000000,,,,0.000000,4.000000,4.000000,4.000000,4.000000,4.000000,4.000000,4.000000,4.000000,4.000000,4.000000,4.000000,4.000000,4.000000,4.000000,100.000000,,,,,,,,,,,,,,,,,1.000000,0.000000,0.410596,-0.532959,-0.358215,-0.647339,0.979001,0.016237,0.178977,-34.061394,-30.770857,25.642696,,,,,,,,,,,,,,,,,,,,,,,,,,,,,,,,,,,,,,,,,,,,,,,,,,,,,,,,,,,,,,,,,,,,,,,,,,,,,,,,,,,,,,,,,,,,,,,,,,,,,,,,,,,,,,,,,,,
1717571978.271776,5.000000,1.000000,4353.297363,4357.041016,4340.958984,4360.461426,4347.723145,4354.066895,4343.630859,4355.323242,4331.543457,4361.728027,4448.440918,4480.189941,4375.220703,4414.128418,5402.000000,0.000000,4.000000,,,,0.000000,4.000000,4.000000,4.000000,4.000000,4.000000,4.000000,4.000000,4.000000,4.000000,4.000000,4.000000,4.000000,4.000000,4.000000,100.000000,,,,,,,,,,,,,,,,,,,,,,,,,,,,,,,,,,,,,,,,,,,,,,,,,,,,,,,,,,,,,,,,,,,,,,,,,,,,,,,,,,,,,,,,,,,,,,,,,,,,,,,,,,,,,,,,,,,,,,,,,,,,,,,,,,,,,,,,,,,,,,,
1717571978.279584,6.000000,0.000000,4353.333496,4357.179688,4340.897461,4360.384766,4347.436035,4353.974121,4343.589844,4355.384766,4331.153809,4361.922852,4448.461426,4480.384766,4376.025879,4414.230957,5190.000000,0.000000,4.000000,,,,0.000000,4.000000,4.000000,4.000000,4.000000,4.000000,4.000000,4.000000,4.000000,4.000000,4.000000,4.000000,4.000000,4.000000,4.000000,100.000000,,,,,,,,,,,,,,,,,,,,,,,,,,,,,,,,,,,,,,,,,,,,,,,,,,,,,,,,,,,,,,,,,,,,0.000000,0.000000,1.000000,0.000000,512.000000,1.000000,,,,,,,,,,,,,,,,,,,,,,,,,,,,,,,,,,,,,,,,,,,,,,,,,,,,,,,,,,,,,,,,,,,,,,
1717571978.287991,7.000000,1.000000,4354.054688,4357.772461,4341.536621,4361.003418,4347.702148,4354.050293,4343.579590,4355.468750,4331.446289,4361.915039,4448.974121,4481.262207,4377.097168,4415.088379,4696.000000,0.000000,4.000000,,,,0.000000,4.000000,4.000000,4.000000,4.000000,4.000000,4.000000,4.000000,4.000000,4.000000,4.000000,4.000000,4.000000,4.000000,4.000000,100.000000,,,,,,,,,,,,,,,,,,,,,,,,,,,,,,,,,,,,,,,,,,,,,,,,,,,,,,,,,,,,,,,,,,,,,,,,,,,,,,,,,,,,,,,,,,,,,,,,,,,,,,,,,,,,,,,,,,,,,,,,,,,,,,,,,,,,,,,,,,,,,,,
1717571978.295799,8.000000,1.000000,4354.775879,4358.365234,4342.175293,4361.622559,4347.968750,4354.126465,4343.569824,4355.552734,4331.738770,4361.907227,4449.487305,4482.139648,4378.168945,4415.945313,5195.000000,0.000000,4.000000,,,,0.000000,4.000000,4.000000,4.000000,4.000000,4.000000,4.000000,4.000000,4.000000,4.000000,4.000000,4.000000,4.000000,4.000000,4.000000,100.000000,,,,,,,,,,,,,,,,,,,,,,,,,,,,,,,,,,,,,,,,,,,,,,,,,,,,,,,,,,,,,,,,,,,,,,,,,,,,,,,,,,,,,,,,,,,,,,,,,,,,,,,,,,,,,,,,,,,,,,,,,,,,,,,,,,,,,,,,,,,,,,,
1717571978.303607,9.000000,1.000000,4355.496582,4358.958496,4342.814453,4362.241699,4348.235352,4354.202637,4343.559570,4355.637207,4332.031250,4361.898926,4450.000000,4483.016602,4379.240723,4416.802734,4806.000000,0.000000,4.000000,,,,0.000000,4.000000,4.000000,4.000000,4.000000,4.000000,4.000000,4.000000,4.000000,4.000000,4.000000,4.000000,4.000000,4.000000,4.000000,100.000000,,,,,,,,,,,,,,,,,,,,,,,,,,,,,,,,,,,,,,,,,,,,,,,,,,,,,,,,,,,,,,,,,,,,,,,,,,,,,,,,,,,,,,,,,,,,,,,,,,,,,,,,,,,,,,,,,,,,,,,,,,,,,,,,,,,,,,,,,,,,,,,
1717571978.311415,10.000000,1.000000,4356.217773,4359.551270,4343.453613,4362.860352,4348.501465,4354.278809,4343.549805,4355.721191,4332.323730,4361.891113,4450.512695,4483.894043,4380.312500,4417.660156,6022.000000,0.000000,4.000000,,,,0.000000,4.000000,4.000000,4.000000,4.000000,4.000000,4.000000,4.000000,4.000000,4.000000,4.000000,4.000000,4.000000,4.000000,4.000000,100.000000,,,,,,,,,,,,,,,,,,,,,,,,,,,,,,,,,,,,,,,,,,,,,,,,,,,,,,,,,,,,,,,,,,,,0.000000,0.000000,1.000000,0.000000,512.000000,1.000000,,,,,,,,,,,,,,,,,,,,,,,,,,,,,,,,,,,,,,,,,,,,,,,,,,,,,,,,,,,,,,,,,,,,,,
1717571978.319223,11.000000,1.000000,4356.938965,4360.144043,4344.092773,4363.479492,4348.768066,4354.354980,4343.539551,4355.805176,4332.616211,4361.882813,4451.025879,4484.771484,4381.384277,4418.517578,5793.000000,0.000000,4.000000,,,,0.000000,4.000000,4.000000,4.000000,4.000000,4.000000,4.000000,4.000000,4.000000,4.000000,4.000000,4.000000,4.000000,4.000000,4.000000,100.000000,,,,,,,,,,,,,,,,,,,,,,,,,,,,,,,,,,,,,,,,,,,,,,,,,,,,,,,,,,,,,,,,,,,,,,,,,,,,,,,,,,,,,,,,,,,,,,,,,,,,,,,,,,,,,,,,,,,,,,,,,,,,,,,,,,,,,,,,,,,,,,,
1717571978.327031,12.000000,1.000000,4357.660156,4360.737305,4344.731445,4364.098633,4349.034668,4354.431152,4343.529785,4355.889648,4332.908691,4361.875000,4451.538574,4485.648926,4382.456055,4419.375000,6669.000000,0.000000,4.000000,,,,0.000000,4.000000,4.000000,4.000000,4.000000,4.000000,4.000000,4.000000,4.000000,4.000000,4.000000,4.000000,4.000000,4.000000,4.000000,100.000000,,,,,,,,,,,,,,,,,3.000000,1.000000,0.410744,-0.532979,-0.358236,-0.647217,0.991047,0.025353,0.174419,-33.717274,-31.182449,25.718081,,,,,,,,,,,,,,,,,,,,,,,,,,,,,,,,,,,,,,,,,,,,,,,,,,,,,,,,,,,,,,,,,,,,,,,,,,,,,,,,,,,,,,,,,,,,,,,,,,,,,,,,,,,,,,,,,,,
1717571978.334839,13.000000,1.000000,4358.381348,4361.330078,4345.370605,4364.717773,4349.300781,4354.507324,4343.519531,4355.973633,4333.201172,4361.867188,4452.051270,4486.526367,4383.527832,4420.232422,6758.000000,0.000000,4.000000,,,,0.000000,4.000000,4.000000,4.000000,4.000000,4.000000,4.000000,4.000000,4.000000,4.000000,4.000000,4.000000,4.000000,4.000000,4.000000,100.000000,,,,,,,,,,,,,,,,,,,,,,,,,,,,,,,,,,,,,,,,,,,,,,,,,,,,,,,,,,,,,,,,,,,,,,,,,,,,,,,,,,,,,,,,,,,,,,,,,,,,,,,,,,,,,,,,,,,,,,,,,,,,,,,,,,,,,,,,,,,,,,,
1717571978.342647,14.000000,1.000000,4359.102539,4361.922852,4346.009766,4365.336426,4349.567383,4354.583496,4343.509766,4356.057617,4333.493652,4361.858887,4452.563965,4487.403809,4384.599121,4421.089844,6022.000000,0.000000,4.000000,,,,0.000000,4.000000,4.000000,4.000000,4.000000,4.000000,4.000000,4.000000,4.000000,4.000000,4.000000,4.000000,4.000000,4.000000,4.000000,100.000000,,,,,,,,,,,,,,,,,,,,,,,,,,,,,1.000000,0.000000,0.000000,,,,,,,,,,,,,,,,,,,,,,,,,,,,,,,,,,,,,0.000000,0.000000,1.000000,0.000000,512.000000,1.000000,1.228938,0.819086,0.436011,0.221744,0.116151,0.538992,0.397423,0.216226,0.113583,0.061180,0.736161,0.512167,0.297565,0.130739,0.084177,1.592993,1.367486,0.728902,0.363226,0.173154,1.514899,0.716606,0.298841,0.106249,0.054715,1.552668,0.865121,0.396537,0.120900,0.072960,1.740664,0.957975,0.407322,0.144426,0.081850,2.632636,1.036560,0.361026,0.127584,0.087532,1.992234,0.682246,0.225199,0.128947,0.107993,3.143775,1.586625,0.697781,0.364926,0.205115,1.703588,0.804185,0.248137,0.154775,0.148991,2.190838,1.099820,0.388177,0.218125,0.149941,2.045214,1.123199,0.449509,0.216209,0.155003,1.876661,1.147885,0.496431,0.245662,0.156108
1717571978.350455,15.000000,1.000000,4359.823730,4362.516113,4346.648438,4365.955566,4349.833496,4354.659668,4343.499512,4356.141602,4333.786133,4361.851074,4453.077148,4488.281250,4385.670898,4421.947266,5850.000000,0.000000,4.000000,,,,0.000000,4.000000,4.000000,4.000000,4.000000,4.000000,4.000000,4.000000,4.000000,4.000000,4.000000,4.000000,4.000000,4.000000,4.000000,100.000000,,,,,,,,,,,,,,,,,,,,,,,,,,,,,,,,,,,,,,,,,,,,,,,,,,,,,,,,,,,,,,,,,,,,,,,,,,,,,,,,,,,,,,,,,,,,,,,,,,,,,,,,,,,,,,,,,,,,,,,,,,,,,,,,,,,,,,,,,,,,,,,
1717571978.358263,16.000000,1.000000,4360.544922,4363.108887,4347.287598,4366.574707,4350.100098,4354.735352,4343.489746,4356.226074,4334.078613,4361.842773,4453.589844,4489.158691,4386.742676,4422.804688,5189.531250,0.000000,4.000000,,,,0.000000,4.000000,4.000000,4.000000,4.000000,4.000000,4.000000,4.000000,4.000000,4.000000,4.000000,4.000000,4.000000,4.000000,4.000000,100.000000,,,,,,,,,,,,,,,,,4.000000,1.000000,0.410918,-0.532939,-0.358317,-0.647095,0.990396,0.021284,0.174256,-33.751125,-31.170610,25.561134,,,,,,,,,,,,,,,,,,,,,,,,,,,,,,,,,,,,,,,,,,,,,,,,,,,,,,,,,,,,,,,,,,,,,,,,,,,,,,,,,,,,,,,,,,,,,,,,,,,,,,,,,,,,,,,,,,,
1717571978.366071,17.000000,1.000000,4361.266113,4363.702148,4347.926758,4367.193359,4350.366699,4354.811523,4343.479492,4356.310059,4334.371094,4361.834961,4454.102539,4490.036133,4387.814453,4423.661621,5189.484375,0.000000,4.000000,,,,0.000000,4.000000,4.000000,4.000000,4.000000,4.000000,4.000000,4.000000,4.000000,4.000000,4.000000,4.000000,4.000000,4.000000,4.000000,100.000000,,,,,,,,,,,,,,,,,,,,,,,,,,,,,,,,,,,,,,,,,,,,,,,,,,,,,,,,,,,,,,,,,,,,,,,,,,,,,,,,,,,,,,,,,,,,,,,,,,,,,,,,,,,,,,,,,,,,,,,,,,,,,,,,,,,,,,,,,,,,,,,
1717571978.373879,18.000000,1.000000,4361.987305,4364.294922,4348.565918,4367.812500,4350.632813,4354.887695,4343.469727,4356.394043,4334.663574,4361.827148,4454.615234,4490.913574,4388.886230,4424.519043,5189.437500,0.000000,4.000000,,,,0.000000,4.000000,4.000000,4.000000,4.000000,4.000000,4.000000,4.000000,4.000000,4.000000,4.000000,4.000000,4.000000,4.000000,4.000000,100.000000,,,,,,,,,,,,,,,,,,,,,,,,,,,,,,,,,,,,,,,,,,,,,,,,,,,,,,,,,,,,,,,,,,,,0.000000,0.000000,1.000000,0.000000,512.000000,1.000000,,,,,,,,,,,,,,,,,,,,,,,,,,,,,,,,,,,,,,,,,,,,,,,,,,,,,,,,,,,,,,,,,,,,,,
1717571978.381687,19.000000,1.000000,4362.708496,4364.887695,4349.204590,4368.431641,4350.899414,4354.963867,4343.459473,4356.478516,4334.956055,4361.818848,4455.128418,4491.791016,4389.958008,4425.376465,5189.390625,0.000000,4.000000,,,,0.000000,4.000000,4.000000,4.000000,4.000000,4.000000,4.000000,4.000000,4.000000,4.000000,4.000000,4.000000,4.000000,4.000000,4.000000,100.000000,,,,,,,,,,,,,,,,,,,,,,,,,,,,,,,,,,,,,,,,,,,,,,,,,,,,,,,,,,,,,,,,,,,,,,,,,,,,,,,,,,,,,,,,,,,,,,,,,,,,,,,,,,,,,,,,,,,,,,,,,,,,,,,,,,,,,,,,,,,,,,,
1717571978.389495,20.000000,1.000000,4363.429688,4365.480957,4349.843750,4369.050293,4351.166016,4355.040039,4343.449707,4356.562500,4335.248535,4361.811035,4455.641113,4492.668457,4391.029785,4426.233887,5189.343750,0.000000,4.000000,,,,0.000000,4.000000,4.000000,4.000000,4.000000,4.000000,4.000000,4.000000,4.000000,4.000000,4.000000,4.000000,4.000000,4.000000,4.000000,100.000000,,,,,,,,,,,,,,,,,5.000000,0.000000,0.411092,-0.532898,-0.358398,-0.646973,0.989745,0.017214,0.174094,-33.784977,-31.158773,25.404188,,,,,,,,,,,,,,,,,,,,,,,,,,,,,,,,,,,,,,,,,,,,,,,,,,,,,,,,,,,,,,,,,,,,,,,,,,,,,,,,,,,,,,,,,,,,,,,,,,,,,,,,,,,,,,,,,,,
1717571978.397303,21.000000,1.000000,4364.150879,4366.073730,4350.482910,4369.669434,4351.432129,4355.116211,4343.439453,4356.646484,4335.541016,4361.802734,4456.153809,4493.545898,4392.101563,4427.091309,5189.296875,0.000000,4.000000,,,,0.000000,4.000000,4.000000,4.000000,4.000000,4.000000,4.000000,4.000000,4.000000,4.000000,4.000000,4.000000,4.000000,4.000000,4.000000,100.000000,,,,,,,,,,,,,,,,,,,,,,,,,,,,,,,,,,,,,,,,,,,,,,,,,,,,,,,,,,,,,,,,,,,,,,,,,,,,,,,,,,,,,,,,,,,,,,,,,,,,,,,,,,,,,,,,,,,,,,,,,,,,,,,,,,,,,,,,,,,,,,,
1717571978.405111,22.000000,1.000000,4364.871582,4366.666504,4351.121582,4370.288574,4351.698730,4355.192383,4343.429688,4356.730957,4335.833496,4361.794922,4456.666504,4494.422852,4393.172852,4427.948730,5189.250000,0.000000,4.000000,,,,0.000000,4.000000,4.000000,4.000000,4.000000,4.000000,4.000000,4.000000,4.000000,4.000000,4.000000,4.000000,4.000000,4.000000,4.000000,100.000000,,,,,,,,,,,,,,,,,,,,,,,,,,,,,,,,,,,,,,,,,,,,,,,,,,,,,,,,,,,,,,,,,,,,0.000000,0.000000,1.000000,0.000000,512.000000,1.000000,,,,,,,,,,,,,,,,,,,,,,,,,,,,,,,,,,,,,,,,,,,,,,,,,,,,,,,,,,,,,,,,,,,,,,
1717571978.412919,23.000000,1.000000,4365.592773,4367.259766,4351.760742,4370.907227,4351.965332,4355.268555,4343.419434,4356.814941,4336.125977,4361.786621,4457.179688,4495.300293,4394.244629,4428.806152,5189.203125,0.000000,4.000000,,,,0.000000,4.000000,4.000000,4.000000,4.000000,4.000000,4.000000,4.000000,4.000000,4.000000,4.000000,4.000000,4.000000,4.000000,4.000000,100.000000,,,,,,,,,,,,,,,,,,,,,,,,,,,,,,,,,,,,,,,,,,,,,,,,,,,,,,,,,,,,,,,,,,,,,,,,,,,,,,,,,,,,,,,,,,,,,,,,,,,,,,,,,,,,,,,,,,,,,,,,,,,,,,,,,,,,,,,,,,,,,,,
1717571978.420727,24.000000,1.000000,4366.313965,4367.852539,4352.399902,4371.526367,4352.231445,4355.344727,4343.409668,4356.898926,4336.418457,4361.778809,4457.692383,4496.177734,4395.316406,4429.663574,5189.156250,0.000000,4.000000,,,,0.000000,4.000000,4.000000,4.000000,4.000000,4.000000,4.000000,4.000000,4.000000,4.000000,4.000000,4.000000,4.000000,4.000000,4.000000,100.000000,,,,,,,,,,,,,,,,,6.000000,1.000000,0.411167,-0.532898,-0.358459,-0.646891,0.988768,0.016237,0.175070,-33.875614,-31.151533,25.327787,,,,,,,,,,,,,,,,,,,,,,,,,,,,,,,,,,,,,,,,,,,,,,,,,,,,,,,,,,,,,,,,,,,,,,,,,,,,,,,,,,,,,,,,,,,,,,,,,,,,,,,,,,,,,,,,,,,
1717571978.428535,25.000000,1.000000,4367.035156,4368.445313,4353.039063,4372.145508,4352.498047,4355.420898,4343.399414,4356.983398,4336.710938,4361.770996,4458.205078,4497.055176,4396.388184,4430.520996,5189.109375,0.000000,4.000000,,,,0.000000,4.000000,4.000000,4.000000,4.000000,4.000000,4.000000,4.000000,4.000000,4.000000,4.000000,4.000000,4.000000,4.000000,4.000000,100.000000,,,,,,,,,,,,,,,,,,,,,,,,,,,,,,,,,,,,,,,,,,,,,,,,,,,,,,,,,,,,,,,,,,,,,,,,,,,,,,,,,,,,,,,,,,,,,,,,,,,,,,,,,,,,,,,,,,,,,,,,,,,,,,,,,,,,,,,,,,,,,,,
1717571978.436343,26.000000,1.000000,4367.756348,4369.038574,4353.677734,4372.764648,4352.764648,4355.496582,4343.389648,4357.067383,4337.003418,4361.762695,4458.717773,4497.932617,4397.459961,4431.378418,5189.062500,0.000000,4.000000,,,,0.000000,4.000000,4.000000,4.000000,4.000000,4.000000,4.000000,4.000000,4.000000,4.000000,4.000000,4.000000,4.000000,4.000000,4.000000,100.000000,,,,,,,,,,,,,,,,,,,,,,,,,,,,,,,,,,,,,,,,,,,,,,,,,,,,,,,,,,,,,,,,,,,,0.000000,0.000000,1.000000,0.000000,512.000000,1.000000,,,,,,,,,,,,,,,,,,,,,,,,,,,,,,,,,,,,,,,,,,,,,,,,,,,,,,,,,,,,,,,,,,,,,,
1717571978.444150,27.000000,1.000000,4368.477539,4369.631348,4354.316895,4373.383301,4353.030762,4355.572754,4343.379395,4357.151367,4337.295898,4361.754883,4459.230957,4498.810059,4398.531738,4432.235352,5189.015625,0.000000,4.000000,,,,0.000000,4.000000,4.000000,4.000000,4.000000,4.000000,4.000000,4.000000,4.000000,4.000000,4.000000,4.000000,4.000000,4.000000,4.000000,100.000000,,,,,,,,,,,,,,,,,,,,,,,,,,,,,,,,,,,,,,,,,,,,,,,,,,,,,,,,,,,,,,,,,,,,,,,,,,,,,,,,,,,,,,,,,,,,,,,,,,,,,,,,,,,,,,,,,,,,,,,,,,,,,,,,,,,,,,,,,,,,,,,
1717571978.451958,28.000000,1.000000,4369.198730,4370.224121,4354.956055,4374.002441,4353.297363,4355.648926,4343.369629,4357.235352,4337.588379,4361.746582,4459.743652,4499.687500,4399.603516,4433.092773,5188.968750,0.000000,4.000000,,,,0.000000,4.000000,4.000000,4.000000,4.000000,4.000000,4.000000,4.000000,4.000000,4.000000,4.000000,4.000000,4.000000,4.000000,4.000000,100.000000,,,,,,,,,,,,,,,,,7.000000,1.000000,0.411242,-0.532898,-0.358521,-0.646810,0.987791,0.015261,0.176047,-33.966251,-31.144293,25.251389,,,,,,,,,,,,,,,,,,,,,,,,,,,,,,,,,,,,,,,,,,,,,,,,,,,,,,,,,,,,,,,,,,,,,,,,,,,,,,,,,,,,,,,,,,,,,,,,,,,,,,,,,,,,,,,,,,,
1717571978.459766,29.000000,1.000000,4369.919922,4370.817383,4355.594727,4374.621582,4353.563477,4355.725098,4343.359375,4357.319824,4337.880371,4361.738770,4460.256348,4500.564941,4400.675293,4433.950195,5188.921875,0.000000,4.000000,,,,0.000000,4.000000,4.000000,4.000000,4.000000,4.000000,4.000000,4.000000,4.000000,4.000000,4.000000,4.000000,4.000000,4.000000,4.000000,100.000000,,,,,,,,,,,,,,,,,,,,,,,,,,,,,,,,,,,,,,,,,,,,,,,,,,,,,,,,,,,,,,,,,,,,,,,,,,,,,,,,,,,,,,,,,,,,,,,,,,,,,,,,,,,,,,,,,,,,,,,,,,,,,,,,,,,,,,,,,,,,,,,
1717571978.467574,30.000000,1.000000,4370.641113,4371.410156,4356.233887,4375.240234,4353.830078,4355.801270,4343.349121,4357.403809,4338.172852,4361.730957,4460.769043,4501.442383,4401.746582,4434.807617,5188.875000,0.000000,4.000000,,,,0.000000,4.000000,4.000000,4.000000,4.000000,4.000000,4.000000,4.000000,4.000000,4.000000,4.000000,4.000000,4.000000,4.000000,4.000000,100.000000,,,,,,,,,,,,,,,,,,,,,,,,,,,,,1.000000,0.000000,0.000000,,,,,,,,,,,,,,,,,,,,,,,,,,,,,,,,,,,,,0.000000,0.000000,1.000000,0.000000,512.000000,0.428495,1.379005,0.816091,0.469923,0.232993,0.119212,0.586396,0.415189,0.228781,0.108763,0.066203,0.781657,0.488943,0.295343,0.130343,0.079385,1.438807,1.262691,0.676904,0.350080,0.165171,1.420300,0.640324,0.269184,0.097803,0.047162,1.423316,0.741724,0.348230,0.113919,0.062192,1.378087,0.797533,0.361533,0.121201,0.063236,2.537352,0.924802,0.323116,0.116320,0.071744,1.656026,0.544846,0.164422,0.103110,0.085761,3.466298,1.608364,0.741484,0.379927,0.208462,1.382216,0.671302,0.213468,0.152823,0.137528,1.808471,0.943009,0.377632,0.203856,0.135553,1.787352,0.933946,0.372328,0.197925,0.136409,1.645267,1.038920,0.507849,0.244361,0.153489
1717571978.475382,31.000000,1.000000,4371.362305,4372.003418,4356.873047,4375.859375,4354.096680,4355.877441,4343.339355,4357.487793,4338.465332,4361.722656,4461.282227,4502.319824,4402.818359,4435.665039,5188.828125,0.000000,4.000000,,,,0.000000,4.000000,4.000000,4.000000,4.000000,4.000000,4.000000,4.000000,4.000000,4.000000,4.000000,4.000000,4.000000,4.000000,4.000000,100.000000,,,,,,,,,,,,,,,,,,,,,,,,,,,,,,,,,,,,,,,,,,,,,,,,,,,,,,,,,,,,,,,,,,,,,,,,,,,,,,,,,,,,,,,,,,,,,,,,,,,,,,,,,,,,,,,,,,,,,,,,,,,,,,,,,,,,,,,,,,,,,,,
1717571978.483190,32.000000,1.000000,4372.083496,4372.596191,4357.512207,4376.478516,4354.362793,4355.953613,4343.329102,4357.572266,4338.757813,4361.714844,4461.794922,4503.197266,4403.890137,4436.522461,5188.781250,0.000000,4.000000,,,,0.000000,4.000000,4.000000,4.000000,4.000000,4.000000,4.000000,4.000000,4.000000,4.000000,4.000000,4.000000,4.000000,4.000000,4.000000,100.000000,,,,,,,,,,,,,,,,,8.000000,0.000000,0.411317,-0.532898,-0.358582,-0.646729,0.986815,0.014284,0.177024,-34.056889,-31.137054,25.174988,,,,,,,,,,,,,,,,,,,,,,,,,,,,,,,,,,,,,,,,,,,,,,,,,,,,,,,,,,,,,,,,,,,,,,,,,,,,,,,,,,,,,,,,,,,,,,,,,,,,,,,,,,,,,,,,,,,
1717571978.490998,33.000000,1.000000,4372.804688,4373.188965,4358.150879,4377.097168,4354.629395,4356.029785,4343.319336,4357.656250,4339.050293,4361.706543,4462.307617,4504.074707,4404.961914,4437.379883,5188.734375,0.000000,4.000000,,,,0.000000,4.000000,4.000000,4.000000,4.000000,4.000000,4.000000,4.000000,4.000000,4.000000,4.000000,4.000000,4.000000,4.000000,4.000000,100.000000,,,,,,,,,,,,,,,,,,,,,,,,,,,,,,,,,,,,,,,,,,,,,,,,,,,,,,,,,,,,,,,,,,,,,,,,,,,,,,,,,,,,,,,,,,,,,,,,,,,,,,,,,,,,,,,,,,,,,,,,,,,,,,,,,,,,,,,,,,,,,,,
1717571978.498806,34.000000,1.000000,4373.525879,4373.782227,4358.790039,4377.716309,4354.895996,4356.105957,4343.309082,4357.740234,4339.342773,4361.698730,4462.820313,4504.952148,4406.033691,4438.237305,5188.687500,0.000000,4.000000,,,,0.000000,4.000000,4.000000,4.000000,4.000000,4.000000,4.000000,4.000000,4.000000,4.000000,4.000000,4.000000,4.000000,4.000000,4.000000,100.000000,,,,,,,,,,,,,,,,,,,,,,,,,,,,,,,,,,,,,,,,,,,,,,,,,,,,,,,,,,,,,,,,,,,,0.000000,0.000000,1.000000,0.000000,512.000000,0.428495,,,,,,,,,,,,,,,,,,,,,,,,,,,,,,,,,,,,,,,,,,,,,,,,,,,,,,,,,,,,,,,,,,,,,,
1717571978.506614,35.000000,1.000000,4374.246582,4374.375000,4359.429199,4378.335449,4355.162109,4356.182129,4343.299316,4357.824707,4339.635254,4361.690918,4463.333496,4505.829102,4407.105469,4439.094727,5188.640625,0.000000,4.000000,,,,0.000000,4.000000,4.000000,4.000000,4.000000,4.000000,4.000000,4.000000,4.000000,4.000000,4.000000,4.000000,4.000000,4.000000,4.000000,100.000000,,,,,,,,,,,,,,,,,,,,,,,,,,,,,,,,,,,,,,,,,,,,,,,,,,,,,,,,,,,,,,,,,,,,,,,,,,,,,,,,,,,,,,,,,,,,,,,,,,,,,,,,,,,,,,,,,,,,,,,,,,,,,,,,,,,,,,,,,,,,,,,
1717571978.514422,36.000000,1.000000,4374.967773,4374.967773,4360.067871,4378.954102,4355.428711,4356.257813,4343.289063,4357.908691,4339.927734,4361.682617,4463.846191,4506.706543,4408.177246,4439.952148,5188.593750,0.000000,4.000000,,,,0.000000,4.000000,4.000000,4.000000,4.000000,4.000000,4.000000,4.000000,4.000000,4.000000,4.000000,4.000000,4.000000,4.000000,4.000000,100.000000,,,,,,,,,,,,,,,,,9.000000,1.000000,0.411224,-0.533105,-0.358423,-0.646704,0.984861,0.013698,0.174094,-34.078922,-31.154354,25.159529,,,,,,,,,,,,,,,,,,,,,,,,,,,,,,,,,,,,,,,,,,,,,,,,,,,,,,,,,,,,,,,,,,,,,,,,,,,,,,,,,,,,,,,,,,,,,,,,,,,,,,,,,,,,,,,,,,,
1717571978.522230,37.000000,1.000000,4375.688965,4375.561035,4360.707031,4379.573242,4355.695313,4356.333984,4343.279297,4357.992676,4340.220215,4361.674805,4464.358887,4507.583984,4409.249023,4440.809082,5188.546875,0.000000,4.000000,,,,0.000000,4.000000,4.000000,4.000000,4.000000,4.000000,4.000000,4.000000,4.000000,4.000000,4.000000,4.000000,4.000000,4.000000,4.000000,100.000000,,,,,,,,,,,,,,,,,,,,,,,,,,,,,,,,,,,,,,,,,,,,,,,,,,,,,,,,,,,,,,,,,,,,,,,,,,,,,,,,,,,,,,,,,,,,,,,,,,,,,,,,,,,,,,,,,,,,,,,,,,,,,,,,,,,,,,,,,,,,,,,
1717571978.530038,38.000000,1.000000,4376.410156,4376.153809,4361.346191,4380.192383,4355.961426,4356.410156,4343.269043,4358.077148,4340.512695,4361.666504,4464.871582,4508.461426,4410.320313,4441.666504,5188.500000,0.000000,4.000000,,,,0.000000,4.000000,4.000000,4.000000,4.000000,4.000000,4.000000,4.000000,4.000000,4.000000,4.000000,4.000000,4.000000,4.000000,4.000000,100.000000,,,,,,,,,,,,,,,,,,,,,,,,,,,,,,,,,,,,,,,,,,,,,,,,,,,,,,,,,,,,,,,,,,,,0.000000,0.000000,1.000000,0.000000,512.000000,0.428495,,,,,,,,,,,,,,,,,,,,,,,,,,,,,,,,,,,,,,,,,,,,,,,,,,,,,,,,,,,,,,,,,,,,,,
1717571978.537846,39.000000,1.000000,4377.131348,4376.746582,4361.985352,4380.811523,4356.228027,4356.486328,4343.259277,4358.161133,4340.805176,4361.658691,4465.384766,4509.338867,4411.392090,4442.523926,5188.453125,0.000000,4.000000,,,,0.000000,4.000000,4.000000,4.000000,4.000000,4.000000,4.000000,4.000000,4.000000,4.000000,4.000000,4.000000,4.000000,4.000000,4.000000,100.000000,,,,,,,,,,,,,,,,,,,,,,,,,,,,,,,,,,,,,,,,,,,,,,,,,,,,,,,,,,,,,,,,,,,,,,,,,,,,,,,,,,,,,,,,,,,,,,,,,,,,,,,,,,,,,,,,,,,,,,,,,,,,,,,,,,,,,,,,,,,,,,,
1717571978.545654,40.000000,1.000000,4377.852539,4377.339844,4362.624023,4381.430176,4356.494629,4356.562500,4343.249023,4358.245117,4341.097656,4361.650879,4465.897461,4510.216309,4412.463867,4443.381348,5188.406250,0.000000,4.000000,,,,0.000000,4.000000,4.000000,4.000000,4.000000,4.000000,4.000000,4.000000,4.000000,4.000000,4.000000,4.000000,4.000000,4.000000,4.000000,100.000000,,,,,,,,,,,,,,,,,10.000000,1.000000,0.411131,-0.533313,-0.358264,-0.646680,0.982908,0.013112,0.171163,-34.100952,-31.171654,25.144070,,,,,,,,,,,,,,,,,,,,,,,,,,,,,,,,,,,,,,,,,,,,,,,,,,,,,,,,,,,,,,,,,,,,,,,,,,,,,,,,,,,,,,,,,,,,,,,,,,,,,,,,,,,,,,,,,,,
1717571978.553462,41.000000,1.000000,4378.573730,4377.932617,4363.263184,4382.049316,4356.760742,4356.638672,4343.239258,4358.329102,4341.390137,4361.642578,4466.410156,4511.093750,4413.535645,4444.238770,5188.359375,0.000000,4.000000,,,,0.000000,4.000000,4.000000,4.000000,4.000000,4.000000,4.000000,4.000000,4.000000,4.000000,4.000000,4.000000,4.000000,4.000000,4.000000,100.000000,,,,,,,,,,,,,,,,,,,,,,,,,,,,,,,,,,,,,,,,,,,,,,,,,,,,,,,,,,,,,,,,,,,,,,,,,,,,,,,,,,,,,,,,,,,,,,,,,,,,,,,,,,,,,,,,,,,,,,,,,,,,,,,,,,,,,,,,,,,,,,,
1717571978.561270,42.000000,1.000000,4379.294922,4378.525879,4363.902344,4382.668457,4357.027344,4356.714844,4343.229004,4358.413574,4341.682617,4361.634766,4466.922852,4511.971191,4414.607422,4445.096191,5188.312500,0.000000,4.000000,,,,0.000000,4.000000,4.000000,4.000000,4.000000,4.000000,4.000000,4.000000,4.000000,4.000000,4.000000,4.000000,4.000000,4.000000,4.000000,100.000000,,,,,,,,,,,,,,,,,,,,,,,,,,,,,,,,,,,,,,,,,,,,,,,,,,,,,,,,,,,,,,,,,,,,0.000000,0.000000,1.000000,0.000000,512.000000,0.428495,,,,,,,,,,,,,,,,,,,,,,,,,,,,,,,,,,,,,,,,,,,,,,,,,,,,,,,,,,,,,,,,,,,,,,
1717571978.569078,43.000000,1.000000,4380.016113,4379.118652,4364.541504,4383.287109,4357.293457,4356.791016,4343.219238,4358.497559,4341.975098,4361.626465,4467.436035,4512.848633,4415.679199,4445.953613,5188.265625,0.000000,4.000000,,,,0.000000,4.000000,4.000000,4.000000,4.000000,4.000000,4.000000,4.000000,4.000000,4.000000,4.000000,4.000000,4.000000,4.000000,4.000000,100.000000,,,,,,,,,,,,,,,,,,,,,,,,,,,,,,,,,,,,,,,,,,,,,,,,,,,,,,,,,,,,,,,,,,,,,,,,,,,,,,,,,,,,,,,,,,,,,,,,,,,,,,,,,,,,,,,,,,,,,,,,,,,,,,,,,,,,,,,,,,,,,,,
1717571978.576886,44.000000,1.000000,4380.737305,4379.711426,4365.180176,4383.906250,4357.560059,4356.867188,4343.208984,4358.581543,4342.267578,4361.618652,4467.948730,4513.726074,4416.750977,4446.811035,5188.218750,0.000000,4.000000,,,,0.000000,4.000000,4.000000,4.000000,4.000000,4.000000,4.000000,4.000000,4.000000,4.000000,4.000000,4.000000,4.000000,4.000000,4.000000,100.000000,,,,,,,,,,,,,,,,,11.000000,1.000000,0.411039,-0.533521,-0.358105,-0.646655,0.980955,0.012526,0.168233,-34.122982,-31.188953,25.128611,,,,,,,,,,,,,,,,,,,,,,,,,,,,,,,,,,,,,,,,,,,,,,,,,,,,,,,,,,,,,,,,,,,,,,,,,,,,,,,,,,,,,,,,,,,,,,,,,,,,,,,,,,,,,,,,,,,
1717571978.584694,45.000000,1.000000,4381.458496,4380.304688,4365.819336,4384.525391,4357.826660,4356.942871,4343.199219,4358.666016,4342.560059,4361.610352,4468.461426,4514.603516,4417.822754,4447.668457,5188.171875,0.000000,4.000000,,,,0.000000,4.000000,4.000000,4.000000,4.000000,4.000000,4.000000,4.000000,4.000000,4.000000,4.000000,4.000000,4.000000,4.000000,4.000000,100.000000,,,,,,,,,,,,,,,,,,,,,,,,,,,,,,,,,,,,,,,,,,,,,,,,,,,,,,,,,,,,,,,,,,,,,,,,,,,,,,,,,,,,,,,,,,,,,,,,,,,,,,,,,,,,,,,,,,,,,,,,,,,,,,,,,,,,,,,,,,,,,,,
1717571978.592502,46.000000,1.000000,4382.179688,4380.897461,4366.458496,4385.144043,4358.092773,4357.019043,4343.188965,4358.750000,4342.852539,4361.602539,4468.974121,4515.480957,4418.894043,4448.525879,5188.125000,0.000000,4.000000,,,,0.000000,4.000000,4.000000,4.000000,4.000000,4.000000,4.000000,4.000000,4.000000,4.000000,4.000000,4.000000,4.000000,4.000000,4.000000,100.000000,,,,,,,,,,,,,,,,,,,,,,,,,,,,,1.000000,0.000000,0.000000,,,,,,,,,,,,,,,,,,,,,,,,,,,,,,,,,,,,,0.000000,0.000000,1.000000,0.000000,512.000000,0.177842,1.369827,0.720810,0.450496,0.217917,0.109646,0.618850,0.415742,0.226959,0.096982,0.067816,0.754892,0.415129,0.263160,0.117642,0.067674,1.248794,1.071249,0.565862,0.314572,0.147285,1.178366,0.507446,0.217708,0.082144,0.037080,1.157325,0.558123,0.277752,0.101668,0.049887,0.963807,0.586682,0.302128,0.097176,0.045706,2.217054,0.731447,0.269861,0.101537,0.054556,1.265431,0.389831,0.110495,0.079112,0.062481,3.404988,1.456248,0.700830,0.353992,0.190093,1.037532,0.513054,0.178099,0.146841,0.118344,1.333186,0.720483,0.346578,0.175727,0.111352,1.452200,0.686602,0.281172,0.170596,0.111641,1.308351,0.843462,0.474449,0.220533,0.137036
1717571978.600310,47.000000,1.000000,4382.900879,4381.490234,4367.097168,4385.763184,4358.359375,4357.095215,4343.179199,4358.833984,4343.145020,4361.594727,4469.487305,4516.358398,4419.965820,4449.382813,5188.078125,0.000000,4.000000,,,,0.000000,4.000000,4.000000,4.000000,4.000000,4.000000,4.000000,4.000000,4.000000,4.000000,4.000000,4.000000,4.000000,4.000000,4.000000,100.000000,,,,,,,,,,,,,,,,,,,,,,,,,,,,,,,,,,,,,,,,,,,,,,,,,,,,,,,,,,,,,,,,,,,,,,,,,,,,,,,,,,,,,,,,,,,,,,,,,,,,,,,,,,,,,,,,,,,,,,,,,,,,,,,,,,,,,,,,,,,,,,,
1717571978.608118,48.000000,1.000000,4383.621582,4382.083496,4367.736328,4386.382324,4358.625977,4357.171387,4343.168945,4358.918457,4343.437500,4361.586426,4470.000000,4517.235352,4421.037598,4450.240234,5188.031250,0.000000,4.000000,,,,0.000000,4.000000,4.000000,4.000000,4.000000,4.000000,4.000000,4.000000,4.000000,4.000000,4.000000,4.000000,4.000000,4.000000,4.000000,100.000000,,,,,,,,,,,,,,,,,12.000000,1.000000,0.410946,-0.533728,-0.357947,-0.646631,0.979001,0.011940,0.165303,-34.145012,-31.206255,25.113152,,,,,,,,,,,,,,,,,,,,,,,,,,,,,,,,,,,,,,,,,,,,,,,,,,,,,,,,,,,,,,,,,,,,,,,,,,,,,,,,,,,,,,,,,,,,,,,,,,,,,,,,,,,,,,,,,,,
1717571978.615926,49.000000,1.000000,4384.342773,4382.676270,4368.375488,4387.000977,4358.892090,4357.247559,4343.159180,4359.002441,4343.729980,4361.578613,4470.512695,4518.112793,4422.109375,4451.097656,5187.984375,0.000000,4.000000,,,,0.000000,4.000000,4.000000,4.000000,4.000000,4.000000,4.000000,4.000000,4.000000,4.000000,4.000000,4.000000,4.000000,4.000000,4.000000,100.000000,,,,,,,,,,,,,,,,,,,,,,,,,,,,,,,,,,,,,,,,,,,,,,,,,,,,,,,,,,,,,,,,,,,,,,,,,,,,,,,,,,,,,,,,,,,,,,,,,,,,,,,,,,,,,,,,,,,,,,,,,,,,,,,,,,,,,,,,,,,,,,,
1717571978.623734,50.000000,1.000000,4385.063965,4383.269043,4369.014648,4387.620117,4359.158691,4357.323730,4343.148926,4359.086426,4344.022461,4361.570313,4471.025879,4518.990234,4423.181152,4451.955078,5187.937500,0.000000,4.000000,,,,0.000000,4.000000,4.000000,4.000000,4.000000,4.000000,4.000000,4.000000,4.000000,4.000000,4.000000,4.000000,4.000000,4.000000,4.000000,100.000000,,,,,,,,,,,,,,,,,,,,,,,,,,,,,,,,,,,,,,,,,,,,,,,,,,,,,,,,,,,,,,,,,,,,0.000000,0.000000,1.000000,0.000000,512.000000,0.177842,,,,,,,,,,,,,,,,,,,,,,,,,,,,,,,,,,,,,,,,,,,,,,,,,,,,,,,,,,,,,,,,,,,,,,
1717571978.631542,51.000000,1.000000,4385.785156,4383.862305,4369.653320,4388.239258,4359.425293,4357.399902,4343.139160,4359.170898,4344.314941,4361.562500,4471.538574,4519.867676,4424.252930,4452.812500,5187.890625,0.000000,4.000000,,,,0.000000,4.000000,4.000000,4.000000,4.000000,4.000000,4.000000,4.000000,4.000000,4.000000,4.000000,4.000000,4.000000,4.000000,4.000000,100.000000,,,,,,,,,,,,,,,,,,,,,,,,,,,,,,,,,,,,,,,,,,,,,,,,,,,,,,,,,,,,,,,,,,,,,,,,,,,,,,,,,,,,,,,,,,,,,,,,,,,,,,,,,,,,,,,,,,,,,,,,,,,,,,,,,,,,,,,,,,,,,,,
1717571978.639350,52.000000,1.000000,4386.506348,4384.455078,4370.292480,4388.858398,4359.691406,4357.476074,4343.128906,4359.254883,4344.607422,4361.554688,4472.051270,4520.745117,4425.324707,4453.669922,5187.843750,0.000000,4.000000,,,,0.000000,4.000000,4.000000,4.000000,4.000000,4.000000,4.000000,4.000000,4.000000,4.000000,4.000000,4.000000,4.000000,4.000000,4.000000,100.000000,,,,,,,,,,,,,,,,,13.000000,0.000000,0.410854,-0.533936,-0.357788,-0.646606,0.977048,0.011354,0.162373,-34.167042,-31.223555,25.097692,,,,,,,,,,,,,,,,,,,,,,,,,,,,,,,,,,,,,,,,,,,,,,,,,,,,,,,,,,,,,,,,,,,,,,,,,,,,,,,,,,,,,,,,,,,,,,,,,,,,,,,,,,,,,,,,,,,
1717571978.647158,53.000000,1.000000,4387.227539,4385.047852,4370.931641,4389.477051,4359.958008,4357.552246,4343.119141,4359.338867,4344.899902,4361.546387,4472.563965,4521.622559,4426.395996,4454.527344,5187.796875,0.000000,4.000000,,,,0.000000,4.000000,4.000000,4.000000,4.000000,4.000000,4.000000,4.000000,4.000000,4.000000,4.000000,4.000000,4.000000,4.000000,4.000000,100.000000,,,,,,,,,,,,,,,,,,,,,,,,,,,,,,,,,,,,,,,,,,,,,,,,,,,,,,,,,,,,,,,,,,,,,,,,,,,,,,,,,,,,,,,,,,,,,,,,,,,,,,,,,,,,,,,,,,,,,,,,,,,,,,,,,,,,,,,,,,,,,,,
1717571978.654966,54.000000,1.000000,4387.948730,4385.641113,4371.570313,4390.096191,4360.224121,4357.628418,4343.108887,4359.422852,4345.192383,4361.538574,4473.077148,4522.500000,4427.467773,4455.384766,5187.750000,0.000000,4.000000,,,,0.000000,4.000000,4.000000,4.000000,4.000000,4.000000,4.000000,4.000000,4.000000,4.000000,4.000000,4.000000,4.000000,4.000000,4.000000,100.000000,,,,,,,,,,,,,,,,,,,,,,,,,,,,,,,,,,,,,,,,,,,,,,,,,,,,,,,,,,,,,,,,,,,,0.000000,0.000000,1.000000,0.000000,512.000000,0.177842,,,,,,,,,,,,,,,,,,,,,,,,,,,,,,,,,,,,,,,,,,,,,,,,,,,,,,,,,,,,,,,,,,,,,,
1717571978.662774,55.000000,1.000000,4388.669922,4386.233887,4372.209473,4390.715332,4360.490723,4357.704102,4343.099121,4359.507324,4345.484863,4361.530273,4473.589844,4523.377441,4428.539551,4456.242188,5187.703125,0.000000,4.000000,,,,0.000000,4.000000,4.000000,4.000000,4.000000,4.000000,4.000000,4.000000,4.000000,4.000000,4.000000,4.000000,4.000000,4.000000,4.000000,100.000000,,,,,,,,,,,,,,,,,,,,,,,,,,,,,,,,,,,,,,,,,,,,,,,,,,,,,,,,,,,,,,,,,,,,,,,,,,,,,,,,,,,,,,,,,,,,,,,,,,,,,,,,,,,,,,,,,,,,,,,,,,,,,,,,,,,,,,,,,,,,,,,
1717571978.670582,56.000000,1.000000,4389.391113,4386.827148,4372.848633,4391.333984,4360.757324,4357.780273,4343.088867,4359.591309,4345.777344,4361.522461,4474.102539,4524.254883,4429.611328,4457.099121,5187.656250,0.000000,4.000000,,,,0.000000,4.000000,4.000000,4.000000,4.000000,4.000000,4.000000,4.000000,4.000000,4.000000,4.000000,4.000000,4.000000,4.000000,4.000000,100.000000,,,,,,,,,,,,,,,,,14.000000,0.000000,0.410897,-0.534058,-0.357666,-0.646545,0.979978,0.026981,0.168722,-34.198639,-31.174412,25.100798,,,,,,,,,,,,,,,,,,,,,,,,,,,,,,,,,,,,,,,,,,,,,,,,,,,,,,,,,,,,,,,,,,,,,,,,,,,,,,,,,,,,,,,,,,,,,,,,,,,,,,,,,,,,,,,,,,,
1717571978.678390,57.000000,1.000000,4390.112305,4387.419922,4373.487793,4391.953125,4361.023438,4357.856445,4343.079102,4359.675293,4346.069824,4361.514648,4474.615234,4525.132324,4430.683105,4457.956543,5187.609375,0.000000,4.000000,,,,0.000000,4.000000,4.000000,4.000000,4.000000,4.000000,4.000000,4.000000,4.000000,4.000000,4.000000,4.000000,4.000000,4.000000,4.000000,100.000000,,,,,,,,,,,,,,,,,,,,,,,,,,,,,,,,,,,,,,,,,,,,,,,,,,,,,,,,,,,,,,,,,,,,,,,,,,,,,,,,,,,,,,,,,,,,,,,,,,,,,,,,,,,,,,,,,,,,,,,,,,,,,,,,,,,,,,,,,,,,,,,
1717571978.686198,58.000000,1.000000,4390.833496,4388.012695,4374.126465,4392.572266,4361.290039,4357.932617,4343.068848,4359.759766,4346.362305,4361.506348,4475.128418,4526.009766,4431.754883,4458.813965,5187.562500,0.000000,4.000000,,,,0.000000,4.000000,4.000000,4.000000,4.000000,4.000000,4.000000,4.000000,4.000000,4.000000,4.000000,4.000000,4.000000,4.000000,4.000000,100.000000,,,,,,,,,,,,,,,,,,,,,,,,,,,,,,,,,,,,,,,,,,,,,,,,,,,,,,,,,,,,,,,,,,,,0.000000,0.000000,1.000000,0.000000,512.000000,0.177842,,,,,,,,,,,,,,,,,,,,,,,,,,,,,,,,,,,,,,,,,,,,,,,,,,,,,,,,,,,,,,,,,,,,,,
1717571978.694006,59.000000,1.000000,4391.554688,4388.605957,4374.765625,4393.190918,4361.556641,4358.008789,4343.059082,4359.843750,4346.654785,4361.498535,4475.641113,4526.887207,4432.826660,4459.671387,5187.515625,0.000000,4.000000,,,,0.000000,4.000000,4.000000,4.000000,4.000000,4.000000,4.000000,4.000000,4.000000,4.000000,4.000000,4.000000,4.000000,4.000000,4.000000,100.000000,,,,,,,,,,,,,,,,,,,,,,,,,,,,,,,,,,,,,,,,,,,,,,,,,,,,,,,,,,,,,,,,,,,,,,,,,,,,,,,,,,,,,,,,,,,,,,,,,,,,,,,,,,,,,,,,,,,,,,,,,,,,,,,,,,,,,,,,,,,,,,,
1717571978.701814,60.000000,1.000000,4392.275879,4389.198730,4375.404785,4393.810059,4361.822754,4358.084961,4343.048828,4359.927734,4346.947266,4361.490234,4476.153809,4527.764648,4433.898438,4460.528809,5187.468750,0.000000,4.000000,,,,0.000000,4.000000,4.000000,4.000000,4.000000,4.000000,4.000000,4.000000,4.000000,4.000000,4.000000,4.000000,4.000000,4.000000,4.000000,100.000000,,,,,,,,,,,,,,,,,15.000000,1.000000,0.410778,-0.534210,-0.357574,-0.646545,0.989989,0.024783,0.166768,-34.208527,-31.317951,25.028616,,,,,,,,,,,,,,,,,,,,,,,,,,,,,,,,,,,,,,,,,,,,,,,,,,,,,,,,,,,,,,,,,,,,,,,,,,,,,,,,,,,,,,,,,,,,,,,,,,,,,,,,,,,,,,,,,,,
1717571978.709621,61.000000,1.000000,4392.996582,4389.791504,4376.043457,4394.429199,4362.089355,4358.161133,4343.039063,4360.012207,4347.239746,4361.482422,4476.666504,4528.641602,4434.969727,4461.386230,5187.421875,0.000000,4.000000,,,,0.000000,4.000000,4.000000,4.000000,4.000000,4.000000,4.000000,4.000000,4.000000,4.000000,4.000000,4.000000,4.000000,4.000000,4.000000,100.000000,,,,,,,,,,,,,,,,,,,,,,,,,,,,,,,,,,,,,,,,,,,,,,,,,,,,,,,,,,,,,,,,,,,,,,,,,,,,,,,,,,,,,,,,,,,,,,,,,,,,,,,,,,,,,,,,,,,,,,,,,,,,,,,,,,,,,,,,,,,,,,,
1717571978.717429,62.000000,1.000000,4393.717773,4390.384766,4376.682617,4395.047852,4362.355957,4358.237305,4343.028809,4360.096191,4347.532227,4361.474121,4477.179688,4529.519043,4436.041504,4462.243652,5187.375000,0.000000,4.000000,,,,0.000000,4.000000,4.000000,4.000000,4.000000,4.000000,4.000000,4.000000,4.000000,4.000000,4.000000,4.000000,4.000000,4.000000,4.000000,100.000000,-1.000000,41.666668,1.000000,3.000000,3.000000,3.000000,3.000000,4.000000,3.000000,3.000000,3.000000,3.000000,3.000000,3.000000,3.000000,1.000000,,,,,,,,,,,,,1.000000,0.000000,0.000000,,,,,,,,,,,,,,,,,,,,,,,,,,,,,,,,,,,,,0.000000,0.000000,1.000000,0.000000,512.000000,0.167034,1.202854,0.563214,0.384048,0.181206,0.090288,0.620001,0.395210,0.210238,0.080862,0.064824,0.658061,0.312083,0.209303,0.095221,0.051741,1.023935,0.836027,0.422214,0.261675,0.121871,0.865998,0.356914,0.157674,0.062310,0.026613,0.841351,0.366828,0.202058,0.084389,0.037685,0.593289,0.380948,0.239129,0.074065,0.031153,1.746607,0.507208,0.209831,0.083007,0.038329,0.901970,0.249930,0.070287,0.058912,0.042032,2.931436,1.165335,0.580771,0.290669,0.153135,0.765369,0.376124,0.149118,0.136420,0.095791,0.884824,0.497701,0.299732,0.139747,0.082979,1.085258,0.444538,0.195817,0.138592,0.085752,0.948950,0.616664,0.403002,0.179326,0.110373
1717571978.725237,63.000000,1.000000,4394.438965,4390.977539,4377.321777,4395.666992,4362.622070,4358.313477,4343.019043,4360.180176,4347.824707,4361.466309,4477.692383,4530.396484,4437.113281,4463.101074,5187.328125,0.000000,4.000000,,,,0.000000,4.000000,4.000000,4.000000,4.000000,4.000000,4.000000,4.000000,4.000000,4.000000,4.000000,4.000000,4.000000,4.000000,4.000000,100.000000,,,,,,,,,,,,,,,,,,,,,,,,,,,,,,,,,,,,,,,,,,,,,,,,,,,,,,,,,,,,,,,,,,,,,,,,,,,,,,,,,,,,,,,,,,,,,,,,,,,,,,,,,,,,,,,,,,,,,,,,,,,,,,,,,,,,,,,,,,,,,,,
1717571978.733045,64.000000,1.000000,4395.160156,4391.570313,4377.960938,4396.286133,4362.888672,4358.389648,4343.008789,4360.264648,4348.117188,4361.458496,4478.205078,4531.273926,4438.185059,4463.958496,3979.000000,0.000000,4.000000,,,,0.000000,4.000000,4.000000,4.000000,4.000000,4.000000,4.000000,4.000000,4.000000,4.000000,4.000000,4.000000,4.000000,4.000000,4.000000,100.000000,,,,,,,,,,,,,,,,,16.000000,0.000000,0.410660,-0.534363,-0.357483,-0.646545,1.000000,0.022586,0.164815,-34.218418,-31.461489,24.956436,,,,,,,,,,,,,,,,,,,,,,,,,,,,,,,,,,,,,,,,,,,,,,,,,,,,,,,,,,,,,,,,,,,,,,,,,,,,,,,,,,,,,,,,,,,,,,,,,,,,,,,,,,,,,,,,,,,
1717571978.740853,65.000000,1.000000,4395.881348,4392.163574,4378.599609,4396.905273,4363.155273,4358.465332,4342.999023,4360.348633,4348.409668,4361.450195,4478.717773,4532.151367,4439.256836,4464.815918,5465.000000,0.000000,4.000000,,,,0.000000,4.000000,4.000000,4.000000,4.000000,4.000000,4.000000,4.000000,4.000000,4.000000,4.000000,4.000000,4.000000,4.000000,4.000000,100.000000,,,,,,,,,,,,,,,,,,,,,,,,,,,,,,,,,,,,,,,,,,,,,,,,,,,,,,,,,,,,,,,,,,,,,,,,,,,,,,,,,,,,,,,,,,,,,,,,,,,,,,,,,,,,,,,,,,,,,,,,,,,,,,,,,,,,,,,,,,,,,,,
1717571978.748661,66.000000,1.000000,4396.602539,4392.756348,4379.238770,4397.523926,4363.421387,4358.541504,4342.988770,4360.432617,4348.702148,4361.442383,4479.230957,4533.028809,4440.328613,4465.672852,3839.000000,0.000000,4.000000,,,,0.000000,4.000000,4.000000,4.000000,4.000000,4.000000,4.000000,4.000000,4.000000,4.000000,4.000000,4.000000,4.000000,4.000000,4.000000,100.000000,,,,,,,,,,,,,,,,,,,,,,,,,,,,,,,,,,,,,,,,,,,,,,,,,,,,,,,,,,,,,,,,,,,,0.000000,0.000000,1.000000,0.000000,512.000000,0.167034,,,,,,,,,,,,,,,,,,,,,,,,,,,,,,,,,,,,,,,,,,,,,,,,,,,,,,,,,,,,,,,,,,,,,,
1717571978.756469,67.000000,1.000000,4397.323730,4393.349121,4379.877930,4398.143066,4363.687988,4358.617676,4342.979004,4360.516602,4348.994629,4361.434082,4479.743652,4533.906250,4441.400391,4466.530273,3532.000000,0.000000,4.000000,,,,0.000000,4.000000,4.000000,4.000000,4.000000,4.000000,4.000000,4.000000,4.000000,4.000000,4.000000,4.000000,4.000000,4.000000,4.000000,100.000000,,,,,,,,,,,,,,,,,,,,,,,,,,,,,,,,,,,,,,,,,,,,,,,,,,,,,,,,,,,,,,,,,,,,,,,,,,,,,,,,,,,,,,,,,,,,,,,,,,,,,,,,,,,,,,,,,,,,,,,,,,,,,,,,,,,,,,,,,,,,,,,
1717571978.764277,68.000000,1.000000,4398.044922,4393.942383,4380.516602,4398.762207,4363.954102,4358.693848,4342.968750,4360.601074,4349.286621,4361.426270,4480.256348,4534.783691,4442.472168,4467.387695,5218.000000,0.000000,4.000000,,,,0.000000,4.000000,4.000000,4.000000,4.000000,4.000000,4.000000,4.000000,4.000000,4.000000,4.000000,4.000000,4.000000,4.000000,4.000000,100.000000,,,,,,,,,,,,,,,,,17.000000,0.000000,0.410660,-0.534363,-0.357483,-0.646545,1.000000,0.022586,0.164815,-34.246574,-31.432007,25.110792,,,,,,,,,,,,,,,,,,,,,,,,,,,,,,,,,,,,,,,,,,,,,,,,,,,,,,,,,,,,,,,,,,,,,,,,,,,,,,,,,,,,,,,,,,,,,,,,,,,,,,,,,,,,,,,,,,,
1717571978.772085,69.000000,1.000000,4398.766113,4394.535156,4381.155762,4399.380859,4364.220703,4358.770020,4342.958496,4360.685059,4349.579102,4361.418457,4480.769043,4535.661133,4443.543457,4468.245117,5402.000000,0.000000,4.000000,,,,0.000000,4.000000,4.000000,4.000000,4.000000,4.000000,4.000000,4.000000,4.000000,4.000000,4.000000,4.000000,4.000000,4.000000,4.000000,100.000000,,,,,,,,,,,,,,,,,,,,,,,,,,,,,,,,,,,,,,,,,,,,,,,,,,,,,,,,,,,,,,,,,,,,,,,,,,,,,,,,,,,,,,,,,,,,,,,,,,,,,,,,,,,,,,,,,,,,,,,,,,,,,,,,,,,,,,,,,,,,,,,
1717571978.779893,70.000000,0.000000,4399.487305,4395.128418,4381.794922,4400.000000,4364.487305,4358.846191,4342.948730,4360.769043,4349.871582,4361.410156,4481.282227,4536.538574,4444.615234,4469.102539,5187.000000,0.000000,4.000000,,,,0.000000,4.000000,4.000000,4.000000,4.000000,4.000000,4.000000,4.000000,4.000000,4.000000,4.000000,4.000000,4.000000,4.000000,4.000000,100.000000,,,,,,,,,,,,,,,,,,,,,,,,,,,,,,,,,,,,,,,,,,,,,,,,,,,,,,,,,,,,,,,,,,,,0.000000,0.000000,1.000000,0.000000,512.000000,0.167034,,,,,,,,,,,,,,,,,,,,,,,,,,,,,,,,,,,,,,,,,,,,,,,,,,,,,,,,,,,,,,,,,,,,,,
1717571978.787701,71.000000,1.000000,4397.156738,4393.793457,4380.429688,4398.272949,4364.849121,4358.770508,4343.280762,4361.161621,4349.954590,4360.512695,4479.509766,4533.537109,4441.244141,4465.867188,4696.000000,0.000000,4.000000,,,,0.000000,4.000000,4.000000,4.000000,4.000000,4.000000,4.000000,4.000000,4.000000,4.000000,4.000000,4.000000,4.000000,4.000000,4.000000,100.000000,,,,,,,,,,,,,,,,,,,,,,,,,,,,,,,,,,,,,,,,,,,,,,,,,,,,,,,,,,,,,,,,,,,,,,,,,,,,,,,,,,,,,,,,,,,,,,,,,,,,,,,,,,,,,,,,,,,,,,,,,,,,,,,,,,,,,,,,,,,,,,,
1717571978.795509,72.000000,1.000000,4394.826660,4392.458496,4379.064941,4396.545898,4365.210938,4358.695313,4343.612305,4361.553711,4350.037598,4359.615234,4477.737793,4530.535645,4437.873535,4462.631836,5195.000000,0.000000,4.000000,,,,0.000000,4.000000,4.000000,4.000000,4.000000,4.000000,4.000000,4.000000,4.000000,4.000000,4.000000,4.000000,4.000000,4.000000,4.000000,100.000000,,,,,,,,,,,,,,,,,18.000000,1.000000,0.410335,-0.534729,-0.357086,-0.646667,0.987059,0.019900,0.167745,-34.225914,-31.385406,25.080252,,,,,,,,,,,,,,,,,,,,,,,,,,,,,,,,,,,,,,,,,,,,,,,,,,,,,,,,,,,,,,,,,,,,,,,,,,,,,,,,,,,,,,,,,,,,,,,,,,,,,,,,,,,,,,,,,,,
1717571978.803317,73.000000,1.000000,4392.496094,4391.123535,4377.699707,4394.818848,4365.573242,4358.620117,4343.944336,4361.945801,4350.120605,4358.717773,4475.965332,4527.534180,4434.502441,4459.396484,4806.000000,0.000000,4.000000,,,,0.000000,4.000000,4.000000,4.000000,4.000000,4.000000,4.000000,4.000000,4.000000,4.000000,4.000000,4.000000,4.000000,4.000000,4.000000,100.000000,,,,,,,,,,,,,,,,,,,,,,,,,,,,,,,,,,,,,,,,,,,,,,,,,,,,,,,,,,,,,,,,,,,,,,,,,,,,,,,,,,,,,,,,,,,,,,,,,,,,,,,,,,,,,,,,,,,,,,,,,,,,,,,,,,,,,,,,,,,,,,,
1717571978.811125,74.000000,1.000000,4390.166016,4389.789063,4376.334961,4393.091797,4365.935059,4358.544434,4344.275879,4362.337891,4350.203613,4357.820313,4474.192871,4524.532227,4431.131348,4456.161621,6022.000000,0.000000,4.000000,,,,0.000000,4.000000,4.000000,4.000000,4.000000,4.000000,4.000000,4.000000,4.000000,4.000000,4.000000,4.000000,4.000000,4.000000,4.000000,100.000000,,,,,,,,,,,,,,,,,,,,,,,,,,,,,,,,,,,,,,,,,,,,,,,,,,,,,,,,,,,,,,,,,,,,0.000000,0.000000,1.000000,0.000000,512.000000,0.167034,,,,,,,,,,,,,,,,,,,,,,,,,,,,,,,,,,,,,,,,,,,,,,,,,,,,,,,,,,,,,,,,,,,,,,
1717571978.818933,75.000000,1.000000,4387.835449,4388.454102,4374.969727,4391.365234,4366.297363,4358.469238,4344.607910,4362.729980,4350.286621,4356.922852,4472.420898,4521.530762,4427.760254,4452.926270,5793.000000,0.000000,4.000000,,,,0.000000,4.000000,4.000000,4.000000,4.000000,4.000000,4.000000,4.000000,4.000000,4.000000,4.000000,4.000000,4.000000,4.000000,4.000000,100.000000,,,,,,,,,,,,,,,,,,,,,,,,,,,,,,,,,,,,,,,,,,,,,,,,,,,,,,,,,,,,,,,,,,,,,,,,,,,,,,,,,,,,,,,,,,,,,,,,,,,,,,,,,,,,,,,,,,,,,,,,,,,,,,,,,,,,,,,,,,,,,,,
1717571978.826741,76.000000,1.000000,4385.505371,4387.119141,4373.604980,4389.638184,4366.659180,4358.393555,4344.939453,4363.122070,4350.369629,4356.025879,4470.648438,4518.529297,4424.389160,4449.690918,6669.000000,0.000000,4.000000,,,,0.000000,4.000000,4.000000,4.000000,4.000000,4.000000,4.000000,4.000000,4.000000,4.000000,4.000000,4.000000,4.000000,4.000000,4.000000,100.000000,,,,,,,,,,,,,,,,,19.000000,0.000000,0.410011,-0.535095,-0.356689,-0.646790,0.974118,0.017214,0.170675,-34.205250,-31.338806,25.049713,,,,,,,,,,,,,,,,,,,,,,,,,,,,,,,,,,,,,,,,,,,,,,,,,,,,,,,,,,,,,,,,,,,,,,,,,,,,,,,,,,,,,,,,,,,,,,,,,,,,,,,,,,,,,,,,,,,
1717571978.834549,77.000000,1.000000,4383.174805,4385.784180,4372.239746,4387.911133,4367.020996,4358.318359,4345.271484,4363.514160,4350.452637,4355.128418,4468.876465,4515.527832,4421.018066,4446.455566,6758.000000,0.000000,4.000000,,,,0.000000,4.000000,4.000000,4.000000,4.000000,4.000000,4.000000,4.000000,4.000000,4.000000,4.000000,4.000000,4.000000,4.000000,4.000000,100.000000,,,,,,,,,,,,,,,,,,,,,,,,,,,,,,,,,,,,,,,,,,,,,,,,,,,,,,,,,,,,,,,,,,,,,,,,,,,,,,,,,,,,,,,,,,,,,,,,,,,,,,,,,,,,,,,,,,,,,,,,,,,,,,,,,,,,,,,,,,,,,,,
1717571978.842357,78.000000,1.000000,4380.844727,4384.449707,4370.875000,4386.184082,4367.383301,4358.242676,4345.603516,4363.906250,4350.535645,4354.230957,4467.104004,4512.526367,4417.646973,4443.220215,6022.000000,0.000000,4.000000,,,,0.000000,4.000000,4.000000,4.000000,4.000000,4.000000,4.000000,4.000000,4.000000,4.000000,4.000000,4.000000,4.000000,4.000000,4.000000,100.000000,,,,,,,,,,,,,,,,,,,,,,,,,,,,,1.000000,0.000000,0.000000,,,,,,,,,,,,,,,,,,,,,,,,,,,,,,,,,,,,,0.000000,0.000000,1.000000,0.000000,1.000000,0.000000,0.928882,0.386356,0.289567,0.133564,0.066448,0.582033,0.350497,0.179855,0.063440,0.056948,0.509846,0.205641,0.146972,0.068367,0.035143,0.763088,0.598958,0.276317,0.199354,0.092599,0.559099,0.223115,0.101789,0.042184,0.017445,0.535908,0.210009,0.135079,0.064033,0.026854,0.316295,0.219972,0.179045,0.053104,0.020279,1.236722,0.303008,0.151098,0.061839,0.024792,0.617993,0.144191,0.044126,0.042540,0.026554,2.206603,0.809840,0.411682,0.205919,0.106725,0.598686,0.283493,0.127493,0.120705,0.073438,0.548998,0.320860,0.242772,0.102755,0.056118,0.753001,0.253873,0.129076,0.106085,0.062455,0.628570,0.408416,0.308764,0.130402,0.079600
1717571978.850165,79.000000,1.000000,4378.514160,4383.114746,4369.509766,4384.457031,4367.745117,4358.167480,4345.935059,4364.298828,4350.618164,4353.333496,4465.332031,4509.524902,4414.275879,4439.984863,5850.000000,0.000000,4.000000,,,,0.000000,4.000000,4.000000,4.000000,4.000000,4.000000,4.000000,4.000000,4.000000,4.000000,4.000000,4.000000,4.000000,4.000000,4.000000,100.000000,,,,,,,,,,,,,,,,,,,,,,,,,,,,,,,,,,,,,,,,,,,,,,,,,,,,,,,,,,,,,,,,,,,,,,,,,,,,,,,,,,,,,,,,,,,,,,,,,,,,,,,,,,,,,,,,,,,,,,,,,,,,,,,,,,,,,,,,,,,,,,,
1717571978.857973,80.000000,1.000000,4376.184082,4381.779785,4368.145020,4382.729980,4368.106934,4358.091797,4346.267090,4364.690918,4350.701172,4352.436035,4463.559570,4506.523438,4410.904785,4436.749512,5561.706055,0.000000,4.000000,,,,0.000000,4.000000,4.000000,4.000000,4.000000,4.000000,4.000000,4.000000,4.000000,4.000000,4.000000,4.000000,4.000000,4.000000,4.000000,100.000000,,,,,,,,,,,,,,,,,20.000000,1.000000,0.410051,-0.535132,-0.356677,-0.646741,0.978025,0.018386,0.170773,-34.187786,-31.353598,25.042156,,,,,,,,,,,,,,,,,,,,,,,,,,,,,,,,,,,,,,,,,,,,,,,,,,,,,,,,,,,,,,,,,,,,,,,,,,,,,,,,,,,,,,,,,,,,,,,,,,,,,,,,,,,,,,,,,,,
1717571978.865781,81.000000,1.000000,4373.853516,4380.444824,4366.779785,4381.002930,4368.469238,4358.016602,4346.598633,4365.083008,4350.784180,4351.538574,4461.787109,4503.521973,4407.534180,4433.514160,5599.176270,0.000000,4.000000,,,,0.000000,4.000000,4.000000,4.000000,4.000000,4.000000,4.000000,4.000000,4.000000,4.000000,4.000000,4.000000,4.000000,4.000000,4.000000,100.000000,,,,,,,,,,,,,,,,,,,,,,,,,,,,,,,,,,,,,,,,,,,,,,,,,,,,,,,,,,,,,,,,,,,,,,,,,,,,,,,,,,,,,,,,,,,,,,,,,,,,,,,,,,,,,,,,,,,,,,,,,,,,,,,,,,,,,,,,,,,,,,,
1717571978.873589,82.000000,1.000000,4371.523438,4379.109863,4365.414551,4379.275879,4368.831055,4357.941406,4346.930664,4365.475098,4350.867188,4350.641113,4460.015137,4500.520508,4404.163086,4430.278809,5636.646973,0.000000,4.000000,,,,0.000000,4.000000,4.000000,4.000000,4.000000,4.000000,4.000000,4.000000,4.000000,4.000000,4.000000,4.000000,4.000000,4.000000,4.000000,100.000000,,,,,,,,,,,,,,,,,,,,,,,,,,,,,,,,,,,,,,,,,,,,,,,,,,,,,,,,,,,,,,,,,,,,0.000000,0.000000,1.000000,0.000000,1.000000,0.000000,,,,,,,,,,,,,,,,,,,,,,,,,,,,,,,,,,,,,,,,,,,,,,,,,,,,,,,,,,,,,,,,,,,,,,
1717571978.881397,83.000000,1.000000,4369.192871,4377.775391,4364.049805,4377.548828,4369.192871,4357.865723,4347.262207,4365.867188,4350.950195,4349.743652,4458.242676,4497.519043,4400.791992,4427.043945,5674.117676,0.000000,4.000000,,,,0.000000,4.000000,4.000000,4.000000,4.000000,4.000000,4.000000,4.000000,4.000000,4.000000,4.000000,4.000000,4.000000,4.000000,4.000000,100.000000,,,,,,,,,,,,,,,,,,,,,,,,,,,,,,,,,,,,,,,,,,,,,,,,,,,,,,,,,,,,,,,,,,,,,,,,,,,,,,,,,,,,,,,,,,,,,,,,,,,,,,,,,,,,,,,,,,,,,,,,,,,,,,,,,,,,,,,,,,,,,,,
1717571978.889205,84.000000,1.000000,4366.862793,4376.440430,4362.684570,4375.821777,4369.555176,4357.790527,4347.594238,4366.259277,4351.033203,4348.846191,4456.470703,4494.517578,4397.420898,4423.808594,5711.588379,0.000000,4.000000,,,,0.000000,4.000000,4.000000,4.000000,4.000000,4.000000,4.000000,4.000000,4.000000,4.000000,4.000000,4.000000,4.000000,4.000000,4.000000,100.000000,,,,,,,,,,,,,,,,,21.000000,1.000000,0.410091,-0.535168,-0.356665,-0.646692,0.981931,0.019558,0.170870,-34.170319,-31.368391,25.034601,,,,,,,,,,,,,,,,,,,,,,,,,,,,,,,,,,,,,,,,,,,,,,,,,,,,,,,,,,,,,,,,,,,,,,,,,,,,,,,,,,,,,,,,,,,,,,,,,,,,,,,,,,,,,,,,,,,
1717571978.897013,85.000000,1.000000,4364.532227,4375.105469,4361.319824,4374.095215,4369.916992,4357.714844,4347.926270,4366.651367,4351.116211,4347.948730,4454.698242,4491.515625,4394.049805,4420.573242,5749.058594,0.000000,4.000000,,,,0.000000,4.000000,4.000000,4.000000,4.000000,4.000000,4.000000,4.000000,4.000000,4.000000,4.000000,4.000000,4.000000,4.000000,4.000000,100.000000,,,,,,,,,,,,,,,,,,,,,,,,,,,,,,,,,,,,,,,,,,,,,,,,,,,,,,,,,,,,,,,,,,,,,,,,,,,,,,,,,,,,,,,,,,,,,,,,,,,,,,,,,,,,,,,,,,,,,,,,,,,,,,,,,,,,,,,,,,,,,,,
1717571978.904821,86.000000,1.000000,4362.202148,4373.770508,4359.954590,4372.368164,4370.278809,4357.639648,4348.257813,4367.043945,4351.199219,4347.051270,4452.926270,4488.514160,4390.678711,4417.337891,5786.529297,0.000000,4.000000,,,,0.000000,4.000000,4.000000,4.000000,4.000000,4.000000,4.000000,4.000000,4.000000,4.000000,4.000000,4.000000,4.000000,4.000000,4.000000,100.000000,,,,,,,,,,,,,,,,,,,,,,,,,,,,,,,,,,,,,,,,,,,,,,,,,,,,,,,,,,,,,,,,,,,,0.000000,0.000000,1.000000,0.000000,1.000000,0.000000,,,,,,,,,,,,,,,,,,,,,,,,,,,,,,,,,,,,,,,,,,,,,,,,,,,,,,,,,,,,,,,,,,,,,,
1717571978.912629,87.000000,0.000000,4359.871582,4372.436035,4358.589844,4370.641113,4370.641113,4357.563965,4348.589844,4367.436035,4351.282227,4346.153809,4451.153809,4485.512695,4387.307617,4414.102539,5824.000000,0.000000,4.000000,,,,0.000000,4.000000,4.000000,4.000000,4.000000,4.000000,4.000000,4.000000,4.000000,4.000000,4.000000,4.000000,4.000000,4.000000,4.000000,100.000000,,,,,,,,,,,,,,,,,,,,,,,,,,,,,,,,,,,,,,,,,,,,,,,,,,,,,,,,,,,,,,,,,,,,,,,,,,,,,,,,,,,,,,,,,,,,,,,,,,,,,,,,,,,,,,,,,,,,,,,,,,,,,,,,,,,,,,,,,,,,,,,
1717571978.920736,88.000000,1.000000,4359.236328,4371.828125,4357.932129,4369.732422,4369.804688,4356.934082,4347.653320,4366.443848,4350.930664,4345.997559,4450.378906,4484.743652,4387.547363,4413.623047,5833.173828,0.000000,4.000000,,,,0.000000,4.000000,4.000000,4.000000,4.000000,4.000000,4.000000,4.000000,4.000000,4.000000,4.000000,4.000000,4.000000,4.000000,4.000000,100.000000,,,,,,,,,,,,,,,,,22.000000,1.000000,0.410130,-0.535205,-0.356653,-0.646643,0.985838,0.020730,0.170968,-34.152851,-31.383183,25.027046,,,,,,,,,,,,,,,,,,,,,,,,,,,,,,,,,,,,,,,,,,,,,,,,,,,,,,,,,,,,,,,,,,,,,,,,,,,,,,,,,,,,,,,,,,,,,,,,,,,,,,,,,,,,,,,,,,,
1717571978.928544,89.000000,1.000000,4358.601074,4371.220703,4357.274414,4368.823730,4368.968750,4356.304199,4346.716797,4365.451660,4350.579590,4345.841797,4449.604004,4483.974121,4387.787109,4413.144043,5842.347656,0.000000,4.000000,,,,0.000000,4.000000,4.000000,4.000000,4.000000,4.000000,4.000000,4.000000,4.000000,4.000000,4.000000,4.000000,4.000000,4.000000,4.000000,100.000000,,,,,,,,,,,,,,,,,,,,,,,,,,,,,,,,,,,,,,,,,,,,,,,,,,,,,,,,,,,,,,,,,,,,,,,,,,,,,,,,,,,,,,,,,,,,,,,,,,,,,,,,,,,,,,,,,,,,,,,,,,,,,,,,,,,,,,,,,,,,,,,
1717571978.936352,90.000000,1.000000,4357.965332,4370.613281,4356.616699,4367.915039,4368.132813,4355.674316,4345.780273,4364.459473,4350.228516,4345.685547,4448.829590,4483.205078,4388.026855,4412.664551,5851.521973,0.000000,4.000000,,,,0.000000,4.000000,4.000000,4.000000,4.000000,4.000000,4.000000,4.000000,4.000000,4.000000,4.000000,4.000000,4.000000,4.000000,4.000000,100.000000,,,,,,,,,,,,,,,,,,,,,,,,,,,,,,,,,,,,,,,,,,,,,,,,,,,,,,,,,,,,,,,,,,,,0.000000,0.000000,1.000000,0.000000,1.000000,0.000000,,,,,,,,,,,,,,,,,,,,,,,,,,,,,,,,,,,,,,,,,,,,,,,,,,,,,,,,,,,,,,,,,,,,,,
1717571978.944160,91.000000,1.000000,4357.330078,4370.005371,4355.958984,4367.006836,4367.296387,4355.044434,4344.843750,4363.467285,4349.877441,4345.529785,4448.054688,4482.436035,4388.266602,4412.185059,5860.695801,0.000000,4.000000,,,,0.000000,4.000000,4.000000,4.000000,4.000000,4.000000,4.000000,4.000000,4.000000,4.000000,4.000000,4.000000,4.000000,4.000000,4.000000,100.000000,,,,,,,,,,,,,,,,,,,,,,,,,,,,,,,,,,,,,,,,,,,,,,,,,,,,,,,,,,,,,,,,,,,,,,,,,,,,,,,,,,,,,,,,,,,,,,,,,,,,,,,,,,,,,,,,,,,,,,,,,,,,,,,,,,,,,,,,,,,,,,,
1717571978.951968,92.000000,1.000000,4356.694336,4369.397949,4355.300781,4366.098145,4366.460449,4354.414551,4343.907227,4362.475098,4349.526367,4345.373535,4447.279785,4481.666504,4388.506348,4411.705566,5869.869629,0.000000,4.000000,,,,0.000000,4.000000,4.000000,4.000000,4.000000,4.000000,4.000000,4.000000,4.000000,4.000000,4.000000,4.000000,4.000000,4.000000,4.000000,100.000000,,,,,,,,,,,,,,,,,23.000000,1.000000,0.410170,-0.535242,-0.356641,-0.646594,0.989745,0.021902,0.171066,-34.135387,-31.397974,25.019489,,,,,,,,,,,,,,,,,,,,,,,,,,,,,,,,,,,,,,,,,,,,,,,,,,,,,,,,,,,,,,,,,,,,,,,,,,,,,,,,,,,,,,,,,,,,,,,,,,,,,,,,,,,,,,,,,,,
1717571978.959776,93.000000,1.000000,4356.059082,4368.790527,4354.643066,4365.189453,4365.624512,4353.784668,4342.971191,4361.482910,4349.174805,4345.217285,4446.504883,4480.897461,4388.745605,4411.226074,5879.043457,0.000000,4.000000,,,,0.000000,4.000000,4.000000,4.000000,4.000000,4.000000,4.000000,4.000000,4.000000,4.000000,4.000000,4.000000,4.000000,4.000000,4.000000,100.000000,,,,,,,,,,,,,,,,,,,,,,,,,,,,,,,,,,,,,,,,,,,,,,,,,,,,,,,,,,,,,,,,,,,,,,,,,,,,,,,,,,,,,,,,,,,,,,,,,,,,,,,,,,,,,,,,,,,,,,,,,,,,,,,,,,,,,,,,,,,,,,,
1717571978.967584,94.000000,1.000000,4355.423828,4368.182617,4353.985352,4364.280762,4364.788086,4353.154785,4342.034668,4360.490723,4348.823730,4345.061523,4445.729980,4480.128418,4388.985352,4410.747070,5888.217285,0.000000,4.000000,,,,0.000000,4.000000,4.000000,4.000000,4.000000,4.000000,4.000000,4.000000,4.000000,4.000000,4.000000,4.000000,4.000000,4.000000,4.000000,100.000000,,,,,,,,,,,,,,,,,,,,,,,,,,,,,1.000000,0.000000,0.000000,,,,,,,,,,,,,,,,,,,,,,,,,,,,,,,,,,,,,0.000000,0.000000,1.000000,0.000000,1.000000,0.000000,0.619866,0.230281,0.191437,0.086970,0.043729,0.482837,0.283684,0.140155,0.047052,0.045285,0.342980,0.117274,0.089698,0.042954,0.021061,0.481714,0.392343,0.154821,0.137081,0.063963,0.315964,0.125812,0.058347,0.025137,0.010469,0.301443,0.107292,0.084003,0.043766,0.018147,0.145700,0.118039,0.125385,0.035324,0.012925,0.778922,0.152314,0.099585,0.040819,0.014842,0.419739,0.077218,0.028303,0.029371,0.016367,1.344728,0.477004,0.240800,0.121635,0.062415,0.511456,0.231300,0.109416,0.099631,0.053387,0.344314,0.204731,0.181478,0.070054,0.034717,0.494510,0.133207,0.083602,0.076134,0.043488,0.378888,0.247999,0.210517,0.084018,0.051056
1717571978.975392,95.000000,1.000000,4354.788086,4367.575195,4353.327637,4363.372559,4363.952148,4352.524902,4341.098145,4359.498535,4348.472656,4344.905273,4444.955566,4479.358887,4389.225098,4410.267578,5897.391113,0.000000,4.000000,,,,0.000000,4.000000,4.000000,4.000000,4.000000,4.000000,4.000000,4.000000,4.000000,4.000000,4.000000,4.000000,4.000000,4.000000,4.000000,100.000000,,,,,,,,,,,,,,,,,,,,,,,,,,,,,,,,,,,,,,,,,,,,,,,,,,,,,,,,,,,,,,,,,,,,,,,,,,,,,,,,,,,,,,,,,,,,,,,,,,,,,,,,,,,,,,,,,,,,,,,,,,,,,,,,,,,,,,,,,,,,,,,
1717571978.983200,96.000000,1.000000,4354.152832,4366.967773,4352.669922,4362.463867,4363.115723,4351.895020,4340.161621,4358.506348,4348.121582,4344.749023,4444.180664,4478.589844,4389.464844,4409.788086,5906.565430,0.000000,4.000000,,,,0.000000,4.000000,4.000000,4.000000,4.000000,4.000000,4.000000,4.000000,4.000000,4.000000,4.000000,4.000000,4.000000,4.000000,4.000000,100.000000,,,,,,,,,,,,,,,,,24.000000,0.000000,0.410210,-0.535278,-0.356628,-0.646545,0.993652,0.023074,0.171163,-34.117920,-31.412766,25.011934,,,,,,,,,,,,,,,,,,,,,,,,,,,,,,,,,,,,,,,,,,,,,,,,,,,,,,,,,,,,,,,,,,,,,,,,,,,,,,,,,,,,,,,,,,,,,,,,,,,,,,,,,,,,,,,,,,,
1717571978.991008,97.000000,1.000000,4353.517090,4366.359863,4352.012207,4361.555176,4362.279785,4351.265137,4339.225098,4357.514160,4347.770508,4344.593262,4443.405762,4477.820313,4389.704590,4409.308594,5915.739258,0.000000,4.000000,,,,0.000000,4.000000,4.000000,4.000000,4.000000,4.000000,4.000000,4.000000,4.000000,4.000000,4.000000,4.000000,4.000000,4.000000,4.000000,100.000000,,,,,,,,,,,,,,,,,,,,,,,,,,,,,,,,,,,,,,,,,,,,,,,,,,,,,,,,,,,,,,,,,,,,,,,,,,,,,,,,,,,,,,,,,,,,,,,,,,,,,,,,,,,,,,,,,,,,,,,,,,,,,,,,,,,,,,,,,,,,,,,
1717571978.998816,98.000000,1.000000,4352.881836,4365.752441,4351.354492,4360.646484,4361.443848,4350.635254,4338.288574,4356.521973,4347.418945,4344.437012,4442.630859,4477.051270,4389.944336,4408.829590,5924.913086,0.000000,4.000000,,,,0.000000,4.000000,4.000000,4.000000,4.000000,4.000000,4.000000,4.000000,4.000000,4.000000,4.000000,4.000000,4.000000,4.000000,4.000000,100.000000,,,,,,,,,,,,,,,,,,,,,,,,,,,,,,,,,,,,,,,,,,,,,,,,,,,,,,,,,,,,,,,,,,,,0.000000,0.000000,1.000000,0.000000,1.000000,0.000000,,,,,,,,,,,,,,,,,,,,,,,,,,,,,,,,,,,,,,,,,,,,,,,,,,,,,,,,,,,,,,,,,,,,,,
1717571979.006624,99.000000,1.000000,4352.246582,4365.145020,4350.696777,4359.737793,4360.607422,4350.005371,4337.352051,4355.529785,4347.067871,4344.280762,4441.855957,4476.282227,4390.184082,4408.350098,5934.086914,0.000000,4.000000,,,,0.000000,4.000000,4.000000,4.000000,4.000000,4.000000,4.000000,4.000000,4.000000,4.000000,4.000000,4.000000,4.000000,4.000000,4.000000,100.000000,,,,,,,,,,,,,,,,,,,,,,,,,,,,,,,,,,,,,,,,,,,,,,,,,,,,,,,,,,,,,,,,,,,,,,,,,,,,,,,,,,,,,,,,,,,,,,,,,,,,,,,,,,,,,,,,,,,,,,,,,,,,,,,,,,,,,,,,,,,,,,,
1717571979.014432,100.000000,1.000000,4351.610840,4364.537109,4350.039063,4358.829590,4359.771484,4349.375488,4336.416016,4354.537109,4346.716797,4344.125000,4441.081543,4475.512695,4390.423828,4407.870605,5943.260742,0.000000,4.000000,,,,0.000000,4.000000,4.000000,4.000000,4.000000,4.000000,4.000000,4.000000,4.000000,4.000000,4.000000,4.000000,4.000000,4.000000,4.000000,100.000000,,,,,,,,,,,,,,,,,25.000000,0.000000,0.409964,-0.535522,-0.356323,-0.646667,1.001953,0.020144,0.155048,-33.962734,-31.489634,25.065147,,,,,,,,,,,,,,,,,,,,,,,,,,,,,,,,,,,,,,,,,,,,,,,,,,,,,,,,,,,,,,,,,,,,,,,,,,,,,,,,,,,,,,,,,,,,,,,,,,,,,,,,,,,,,,,,,,,
1717571979.022240,101.000000,1.000000,4350.975586,4363.929688,4349.381348,4357.920898,4358.935547,4348.745605,4335.479492,4353.544922,4346.365723,4343.968750,4440.306641,4474.743652,4390.663086,4407.391113,5952.434570,0.000000,4.000000,,,,0.000000,4.000000,4.000000,4.000000,4.000000,4.000000,4.000000,4.000000,4.000000,4.000000,4.000000,4.000000,4.000000,4.000000,4.000000,100.000000,,,,,,,,,,,,,,,,,,,,,,,,,,,,,,,,,,,,,,,,,,,,,,,,,,,,,,,,,,,,,,,,,,,,,,,,,,,,,,,,,,,,,,,,,,,,,,,,,,,,,,,,,,,,,,,,,,,,,,,,,,,,,,,,,,,,,,,,,,,,,,,
1717571979.030048,102.000000,1.000000,4350.339844,4363.322266,4348.723633,4357.012207,4358.099121,4348.115723,4334.542969,4352.552734,4346.014648,4343.812500,4439.531738,4473.974121,4390.902832,4406.912109,5961.608887,0.000000,4.000000,,,,0.000000,4.000000,4.000000,4.000000,4.000000,4.000000,4.000000,4.000000,4.000000,4.000000,4.000000,4.000000,4.000000,4.000000,4.000000,100.000000,,,,,,,,,,,,,,,,,,,,,,,,,,,,,,,,,,,,,,,,,,,,,,,,,,,,,,,,,,,,,,,,,,,,0.000000,0.000000,1.000000,0.000000,1.000000,0.000000,,,,,,,,,,,,,,,,,,,,,,,,,,,,,,,,,,,,,,,,,,,,,,,,,,,,,,,,,,,,,,,,,,,,,,
1717571979.037856,103.000000,1.000000,4349.704590,4362.714844,4348.065918,4356.103516,4357.263184,4347.485840,4333.606445,4351.560547,4345.663086,4343.656738,4438.756836,4473.205078,4391.142578,4406.432617,5970.782715,0.000000,4.000000,,,,0.000000,4.000000,4.000000,4.000000,4.000000,4.000000,4.000000,4.000000,4.000000,4.000000,4.000000,4.000000,4.000000,4.000000,4.000000,100.000000,,,,,,,,,,,,,,,,,,,,,,,,,,,,,,,,,,,,,,,,,,,,,,,,,,,,,,,,,,,,,,,,,,,,,,,,,,,,,,,,,,,,,,,,,,,,,,,,,,,,,,,,,,,,,,,,,,,,,,,,,,,,,,,,,,,,,,,,,,,,,,,
1717571979.045664,104.000000,1.000000,4349.069336,4362.106934,4347.408203,4355.195313,4356.426758,4346.855957,4332.669922,4350.568359,4345.312012,4343.500488,4437.981934,4472.436035,4391.382324,4405.953125,5979.956543,0.000000,4.000000,,,,0.000000,4.000000,4.000000,4.000000,4.000000,4.000000,4.000000,4.000000,4.000000,4.000000,4.000000,4.000000,4.000000,4.000000,4.000000,100.000000,,,,,,,,,,,,,,,,,26.000000,1.000000,0.410052,-0.535535,-0.356470,-0.646521,0.996582,0.020925,0.157490,-33.945423,-31.417889,25.066366,,,,,,,,,,,,,,,,,,,,,,,,,,,,,,,,,,,,,,,,,,,,,,,,,,,,,,,,,,,,,,,,,,,,,,,,,,,,,,,,,,,,,,,,,,,,,,,,,,,,,,,,,,,,,,,,,,,
