title:8-june5-II-pm-live, start timestamp:1717571942.705421, stop timestamp:1717571946.964811, headset type:EPOCX, headset serial:E50208D9, headset firmware:730, channels:182, sampling rate:eeg_128;mot_32;mc_8;pm_0.1;fe_32;pow_8, samples:443       , version:2.2, 
Timestamp,EEG.Counter,EEG.Interpolated,EEG.AF3,EEG.F7,EEG.F3,EEG.FC5,EEG.T7,EEG.P7,EEG.O1,EEG.O2,EEG.P8,EEG.T8,EEG.FC6,EEG.F4,EEG.F8,EEG.AF4,EEG.RawCq,EEG.Battery,EEG.BatteryPercent,MarkerIndex,MarkerType,MarkerValueInt,EEG.MarkerHardware,CQ.AF3,CQ.F7,CQ.F3,CQ.FC5,CQ.T7,CQ.P7,CQ.O1,CQ.O2,CQ.P8,CQ.T8,CQ.FC6,CQ.F4,CQ.F8,CQ.AF4,CQ.Overall,EQ.SampleRateQuality,EQ.OVERALL,EQ.AF3,EQ.F7,EQ.F3,EQ.FC5,EQ.T7,EQ.P7,EQ.O1,EQ.O2,EQ.P8,EQ.T8,EQ.FC6,EQ.F4,EQ.F8,EQ.AF4,MOT.CounterMems,MOT.InterpolatedMems,MOT.Q0,MOT.Q1,MOT.Q2,MOT.Q3,MOT.AccX,MOT.AccY,MOT.AccZ,MOT.MagX,MOT.MagY,MOT.MagZ,MC.Action,MC.ActionPower,MC.IsActive,PM.Attention.IsActive,PM.Attention.Scaled,PM.Attention.Raw,PM.Attention.Min,PM.Attention.Max,PM.Engagement.IsActive,PM.Engagement.Scaled,PM.Engagement.Raw,PM.Engagement.Min,PM.Engagement.Max,PM.Excitement.IsActive,PM.Excitement.Scaled,PM.Excitement.Raw,PM.Excitement.Min,PM.Excitement.Max,PM.LongTermExcitement,PM.Stress.IsActive,PM.Stress.Scaled,PM.Stress.Raw,PM.Stress.Min,PM.Stress.Max,PM.Relaxation.IsActive,PM.Relaxation.Scaled,PM.Relaxation.Raw,PM.Relaxation.Min,PM.Relaxation.Max,PM.Interest.IsActive,PM.Interest.Scaled,PM.Interest.Raw,PM.Interest.Min,PM.Interest.Max,PM.Focus.IsActive,PM.Focus.Scaled,PM.Focus.Raw,PM.Focus.Min,PM.Focus.Max,FE.BlinkWink,FE.HorizontalEyesDirection,FE.UpperFaceAction,FE.UpperFaceActionPower,FE.LowerFaceAction,FE.LowerFaceActionPower,POW.AF3.Theta,POW.AF3.Alpha,POW.AF3.BetaL,POW.AF3.BetaH,POW.AF3.Gamma,POW.F7.Theta,POW.F7.Alpha,POW.F7.BetaL,POW.F7.BetaH,POW.F7.Gamma,POW.F3.Theta,POW.F3.Alpha,POW.F3.BetaL,POW.F3.BetaH,POW.F3.Gamma,POW.FC5.Theta,POW.FC5.Alpha,POW.FC5.BetaL,POW.FC5.BetaH,POW.FC5.Gamma,POW.T7.Theta,POW.T7.Alpha,POW.T7.BetaL,POW.T7.BetaH,POW.T7.Gamma,POW.P7.Theta,POW.P7.Alpha,POW.P7.BetaL,POW.P7.BetaH,POW.P7.Gamma,POW.O1.Theta,POW.O1.Alpha,POW.O1.BetaL,POW.O1.BetaH,POW.O1.Gamma,POW.O2.Theta,POW.O2.Alpha,POW.O2.BetaL,POW.O2.BetaH,POW.O2.Gamma,POW.P8.Theta,POW.P8.Alpha,POW.P8.BetaL,POW.P8.BetaH,POW.P8.Gamma,POW.T8.Theta,POW.T8.Alpha,POW.T8.BetaL,POW.T8.BetaH,POW.T8.Gamma,POW.FC6.Theta,POW.FC6.Alpha,POW.FC6.BetaL,POW.FC6.BetaH,POW.FC6.Gamma,POW.F4.Theta,POW.F4.Alpha,POW.F4.BetaL,POW.F4.BetaH,POW.F4.Gamma,POW.F8.Theta,POW.F8.Alpha,POW.F8.BetaL,POW.F8.BetaH,POW.F8.Gamma,POW.AF4.Theta,POW.AF4.Alpha,POW.AF4.BetaL,POW.AF4.BetaH,POW.AF4.Gamma
1717571942.705421,54.000000,0.000000,4380.128418,4388.589844,4371.922852,4391.666504,4365.897461,4365.256348,4361.410156,4370.128418,4360.769043,4353.846191,4482.307617,4522.563965,4386.410156,4438.589844,0.000000,0.000000,4.000000,,,,0.000000,4.000000,4.000000,4.000000,4.000000,4.000000,4.000000,4.000000,4.000000,4.000000,4.000000,4.000000,4.000000,4.000000,4.000000,100.000000,,,,,,,,,,,,,,,,,,,,,,,,,,,,,,,,,,,,,,,,,,,,,,,,,,,,,,,,,,,,,,,,,,,,,,,,,,,,,,,,,,,,,,,,,,,,,,,,,,,,,,,,,,,,,,,,,,,,,,,,,,,,,,,,,,,,,,,,,,,,,,,
1717571942.713129,55.000000,0.000000,4380.384766,4376.153809,4368.205078,4389.487305,4368.205078,4364.743652,4359.102539,4366.410156,4356.794922,4347.563965,4471.922852,4520.256348,4377.692383,4434.102539,0.000000,0.000000,4.000000,,,,0.000000,4.000000,4.000000,4.000000,4.000000,4.000000,4.000000,4.000000,4.000000,4.000000,4.000000,4.000000,4.000000,4.000000,4.000000,100.000000,,,,,,,,,,,,,,,,,,,,,,,,,,,,,,,,,,,,,,,,,,,,,,,,,,,,,,,,,,,,,,,,,,,,0.000000,0.000000,1.000000,0.000000,512.000000,1.000000,,,,,,,,,,,,,,,,,,,,,,,,,,,,,,,,,,,,,,,,,,,,,,,,,,,,,,,,,,,,,,,,,,,,,,
1717571942.721036,56.000000,1.000000,4380.730957,4376.653809,4369.077148,4388.538574,4368.294922,4365.897461,4360.269043,4367.012695,4357.858887,4347.179688,4473.974121,4521.846191,4380.217773,4435.833496,551.400024,0.000000,4.000000,,,,0.000000,4.000000,4.000000,4.000000,4.000000,4.000000,4.000000,4.000000,4.000000,4.000000,4.000000,4.000000,4.000000,4.000000,4.000000,100.000000,,,,,,,,,,,,,,,,,14.000000,0.000000,0.384442,-0.548401,-0.352356,-0.653687,0.979490,0.033329,0.153583,-34.723797,-29.770029,23.567865,,,,,,,,,,,,,,,,,,,,,,,,,,,,,,,,,,,,,,,,,,,,,,,,,,,,,,,,,,,,,,,,,,,,,,,,,,,,,,,,,,,,,,,,,,,,,,,,,,,,,,,,,,,,,,,,,,,
1717571942.728844,57.000000,1.000000,4381.077148,4377.153809,4369.948730,4387.589844,4368.384766,4367.051270,4361.436035,4367.615234,4358.922852,4346.794922,4476.025879,4523.436035,4382.743652,4437.563965,1102.800049,0.000000,4.000000,,,,0.000000,4.000000,4.000000,4.000000,4.000000,4.000000,4.000000,4.000000,4.000000,4.000000,4.000000,4.000000,4.000000,4.000000,4.000000,100.000000,,,,,,,,,,,,,,,,,,,,,,,,,,,,,,,,,,,,,,,,,,,,,,,,,,,,,,,,,,,,,,,,,,,,,,,,,,,,,,,,,,,,,,,,,,,,,,,,,,,,,,,,,,,,,,,,,,,,,,,,,,,,,,,,,,,,,,,,,,,,,,,
1717571942.736652,58.000000,1.000000,4381.422852,4377.653809,4370.820313,4386.641113,4368.474121,4368.205078,4362.602539,4368.217773,4359.987305,4346.410156,4478.077148,4525.025879,4385.269043,4439.294922,1654.199951,0.000000,4.000000,,,,0.000000,4.000000,4.000000,4.000000,4.000000,4.000000,4.000000,4.000000,4.000000,4.000000,4.000000,4.000000,4.000000,4.000000,4.000000,100.000000,,,,,,,,,,,,,,,,,,,,,,,,,,,,,,,,,,,,,,,,,,,,,,,,,,,,,,,,,,,,,,,,,,,,,,,,,,,,,,,,,,,,,,,,,,,,,,,,,,,,,,,,,,,,,,,,,,,,,,,,,,,,,,,,,,,,,,,,,,,,,,,
1717571942.744460,59.000000,1.000000,4381.769043,4378.153809,4371.692383,4385.692383,4368.563965,4369.358887,4363.769043,4368.820313,4361.051270,4346.025879,4480.128418,4526.615234,4387.794922,4441.025879,2205.600098,0.000000,4.000000,,,,0.000000,4.000000,4.000000,4.000000,4.000000,4.000000,4.000000,4.000000,4.000000,4.000000,4.000000,4.000000,4.000000,4.000000,4.000000,100.000000,,,,,,,,,,,,,,,,,,,,,,,,,,,,,,,,,,,,,,,,,,,,,,,,,,,,,,,,,,,,,,,,,,,,0.000000,0.000000,1.000000,0.000000,512.000000,1.000000,,,,,,,,,,,,,,,,,,,,,,,,,,,,,,,,,,,,,,,,,,,,,,,,,,,,,,,,,,,,,,,,,,,,,,
1717571942.752268,60.000000,1.000000,4382.115234,4378.653809,4372.563965,4384.743652,4368.653809,4370.512695,4364.936035,4369.422852,4362.115234,4345.641113,4482.179688,4528.205078,4390.320313,4442.756348,2757.000000,0.000000,4.000000,,,,0.000000,4.000000,4.000000,4.000000,4.000000,4.000000,4.000000,4.000000,4.000000,4.000000,4.000000,4.000000,4.000000,4.000000,4.000000,100.000000,,,,,,,,,,,,,,,,,15.000000,1.000000,0.384598,-0.548401,-0.352356,-0.653595,0.987547,0.034062,0.155048,-34.670940,-29.773195,23.547804,,,,,,,,,,,,,,,,,,,,,,,,,,,,,,,,,,,,,,,,,,,,,,,,,,,,,,,,,,,,,,,,,,,,,,,,,,,,,,,,,,,,,,,,,,,,,,,,,,,,,,,,,,,,,,,,,,,
1717571942.760076,61.000000,1.000000,4382.461426,4379.153809,4373.436035,4383.794922,4368.743652,4371.666504,4366.102539,4370.025879,4363.179688,4345.256348,4484.230957,4529.794922,4392.846191,4444.487305,3308.399902,0.000000,4.000000,,,,0.000000,4.000000,4.000000,4.000000,4.000000,4.000000,4.000000,4.000000,4.000000,4.000000,4.000000,4.000000,4.000000,4.000000,4.000000,100.000000,,,,,,,,,,,,,,,,,,,,,,,,,,,,,,,,,,,,,,,,,,,,,,,,,,,,,,,,,,,,,,,,,,,,,,,,,,,,,,,,,,,,,,,,,,,,,,,,,,,,,,,,,,,,,,,,,,,,,,,,,,,,,,,,,,,,,,,,,,,,,,,
1717571942.767884,62.000000,1.000000,4382.807617,4379.653809,4374.307617,4382.846191,4368.833496,4372.820313,4367.269043,4370.628418,4364.243652,4344.871582,4486.282227,4531.384766,4395.371582,4446.217773,3859.800049,0.000000,4.000000,,,,0.000000,4.000000,4.000000,4.000000,4.000000,4.000000,4.000000,4.000000,4.000000,4.000000,4.000000,4.000000,4.000000,4.000000,4.000000,100.000000,,,,,,,,,,,,,,,,,,,,,,,,,,,,,,,,,,,,,,,,,,,,,,,,,,,,,,,,,,,,,,,,,,,,,,,,,,,,,,,,,,,,,,,,,,,,,,,,,,,,,,,,,,,,,,,,,,,,,,,,,,,,,,,,,,,,,,,,,,,,,,,
1717571942.775692,63.000000,1.000000,4383.153809,4380.153809,4375.179688,4381.897461,4368.922852,4373.974121,4368.436035,4371.230957,4365.307617,4344.487305,4488.333496,4532.974121,4397.897461,4447.948730,4411.200195,0.000000,4.000000,,,,0.000000,4.000000,4.000000,4.000000,4.000000,4.000000,4.000000,4.000000,4.000000,4.000000,4.000000,4.000000,4.000000,4.000000,4.000000,100.000000,,,,,,,,,,,,,,,,,,,,,,,,,,,,,,,,,,,,,,,,,,,,,,,,,,,,,,,,,,,,,,,,,,,,0.000000,0.000000,1.000000,0.000000,512.000000,1.000000,,,,,,,,,,,,,,,,,,,,,,,,,,,,,,,,,,,,,,,,,,,,,,,,,,,,,,,,,,,,,,,,,,,,,,
1717571942.783500,64.000000,1.000000,4383.500000,4380.653809,4376.051270,4380.948730,4369.012695,4375.128418,4369.602539,4371.833496,4366.371582,4344.102539,4490.384766,4534.563965,4400.422852,4449.679688,3969.000000,0.000000,4.000000,,,,0.000000,4.000000,4.000000,4.000000,4.000000,4.000000,4.000000,4.000000,4.000000,4.000000,4.000000,4.000000,4.000000,4.000000,4.000000,100.000000,,,,,,,,,,,,,,,,,16.000000,0.000000,0.384753,-0.548401,-0.352356,-0.653503,0.995605,0.034794,0.156513,-34.618084,-29.776360,23.527744,,,,,,,,,,,,,,,,,,,,,,,,,,,,,,,,,,,,,,,,,,,,,,,,,,,,,,,,,,,,,,,,,,,,,,,,,,,,,,,,,,,,,,,,,,,,,,,,,,,,,,,,,,,,,,,,,,,
1717571942.791308,65.000000,0.000000,4383.846191,4381.153809,4376.922852,4380.000000,4369.102539,4376.282227,4370.769043,4372.436035,4367.436035,4343.717773,4492.436035,4536.153809,4402.948730,4451.410156,5514.000000,0.000000,4.000000,,,,0.000000,4.000000,4.000000,4.000000,4.000000,4.000000,4.000000,4.000000,4.000000,4.000000,4.000000,4.000000,4.000000,4.000000,4.000000,100.000000,,,,,,,,,,,,,,,,,,,,,,,,,,,,,,,,,,,,,,,,,,,,,,,,,,,,,,,,,,,,,,,,,,,,,,,,,,,,,,,,,,,,,,,,,,,,,,,,,,,,,,,,,,,,,,,,,,,,,,,,,,,,,,,,,,,,,,,,,,,,,,,
1717571942.799616,66.000000,1.000000,4383.266602,4380.878906,4376.415527,4379.578125,4368.619141,4375.528809,4370.328613,4371.829590,4366.498535,4342.914063,4491.728027,4535.470215,4403.108887,4450.819824,3862.000000,0.000000,4.000000,,,,0.000000,4.000000,4.000000,4.000000,4.000000,4.000000,4.000000,4.000000,4.000000,4.000000,4.000000,4.000000,4.000000,4.000000,4.000000,100.000000,,,,,,,,,,,,,,,,,,,,,,,,,,,,,,,,,,,,,,,,,,,,,,,,,,,,,,,,,,,,,,,,,,,,,,,,,,,,,,,,,,,,,,,,,,,,,,,,,,,,,,,,,,,,,,,,,,,,,,,,,,,,,,,,,,,,,,,,,,,,,,,
1717571942.807424,67.000000,1.000000,4382.687012,4380.603516,4375.908203,4379.155762,4368.135742,4374.775879,4369.887695,4371.223145,4365.561035,4342.109863,4491.020508,4534.786133,4403.269043,4450.229492,3637.000000,0.000000,4.000000,,,,0.000000,4.000000,4.000000,4.000000,4.000000,4.000000,4.000000,4.000000,4.000000,4.000000,4.000000,4.000000,4.000000,4.000000,4.000000,100.000000,,,,,,,,,,,,,,,,,,,,,,,,,,,,,1.000000,0.000000,0.000000,,,,,,,,,,,,,,,,,,,,,,,,,,,,,,,,,,,,,0.000000,0.000000,1.000000,0.000000,512.000000,1.000000,0.304639,0.058934,0.025263,0.022205,0.008140,0.165230,0.060613,0.070891,0.031363,0.015568,0.305199,0.053372,0.013806,0.009381,0.003108,1.386031,0.321105,0.147729,0.107122,0.028805,0.247174,0.096200,0.056373,0.011137,0.007171,0.287625,0.077938,0.048260,0.011267,0.006645,0.230110,0.098176,0.046474,0.016855,0.007432,0.222066,0.101481,0.055994,0.021713,0.008587,0.300479,0.154380,0.086018,0.027451,0.011497,0.507839,0.198923,0.121243,0.028122,0.013222,0.533440,0.125170,0.057164,0.029317,0.012073,0.623563,0.151606,0.063748,0.035079,0.010470,0.600650,0.122454,0.080046,0.029662,0.017944,0.524087,0.121221,0.066535,0.036769,0.013014
1717571942.815232,68.000000,1.000000,4382.107422,4380.328613,4375.400879,4378.733887,4367.652344,4374.022461,4369.447266,4370.617188,4364.623535,4341.306152,4490.312500,4534.102539,4403.429688,4449.639648,5193.000000,0.000000,4.000000,,,,0.000000,4.000000,4.000000,4.000000,4.000000,4.000000,4.000000,4.000000,4.000000,4.000000,4.000000,4.000000,4.000000,4.000000,4.000000,100.000000,,,,,,,,,,,,,,,,,17.000000,0.000000,0.384753,-0.548401,-0.352356,-0.653503,0.995605,0.034794,0.156513,-34.738041,-29.755302,23.525520,,,,,,,,,,,,,,,,,,,,,,,,,,,,,,,,,,,,,,,,,,,,,,,,,,,,,,,,,,,,,,,,,,,,,,,,,,,,,,,,,,,,,,,,,,,,,,,,,,,,,,,,,,,,,,,,,,,
1717571942.823040,69.000000,1.000000,4381.527832,4380.053223,4374.893066,4378.312012,4367.168945,4373.269043,4369.006348,4370.010742,4363.686035,4340.501953,4489.604492,4533.418945,4403.589844,4449.049316,5395.000000,0.000000,4.000000,,,,0.000000,4.000000,4.000000,4.000000,4.000000,4.000000,4.000000,4.000000,4.000000,4.000000,4.000000,4.000000,4.000000,4.000000,4.000000,100.000000,,,,,,,,,,,,,,,,,,,,,,,,,,,,,,,,,,,,,,,,,,,,,,,,,,,,,,,,,,,,,,,,,,,,,,,,,,,,,,,,,,,,,,,,,,,,,,,,,,,,,,,,,,,,,,,,,,,,,,,,,,,,,,,,,,,,,,,,,,,,,,,
1717571942.830848,70.000000,1.000000,4380.948242,4379.778320,4374.385742,4377.890137,4366.685547,4372.516113,4368.565918,4369.404297,4362.748535,4339.698242,4488.896973,4532.734863,4403.750000,4448.458984,5193.000000,0.000000,4.000000,,,,0.000000,4.000000,4.000000,4.000000,4.000000,4.000000,4.000000,4.000000,4.000000,4.000000,4.000000,4.000000,4.000000,4.000000,4.000000,100.000000,,,,,,,,,,,,,,,,,,,,,,,,,,,,,,,,,,,,,,,,,,,,,,,,,,,,,,,,,,,,,,,,,,,,,,,,,,,,,,,,,,,,,,,,,,,,,,,,,,,,,,,,,,,,,,,,,,,,,,,,,,,,,,,,,,,,,,,,,,,,,,,
1717571942.838656,71.000000,1.000000,4380.368652,4379.503418,4373.878418,4377.467773,4366.202148,4371.762695,4368.125000,4368.797852,4361.811035,4338.894043,4488.188965,4532.051270,4403.910156,4447.868652,4699.000000,0.000000,4.000000,,,,0.000000,4.000000,4.000000,4.000000,4.000000,4.000000,4.000000,4.000000,4.000000,4.000000,4.000000,4.000000,4.000000,4.000000,4.000000,100.000000,,,,,,,,,,,,,,,,,,,,,,,,,,,,,,,,,,,,,,,,,,,,,,,,,,,,,,,,,,,,,,,,,,,,0.000000,0.000000,1.000000,0.000000,512.000000,1.000000,,,,,,,,,,,,,,,,,,,,,,,,,,,,,,,,,,,,,,,,,,,,,,,,,,,,,,,,,,,,,,,,,,,,,,
1717571942.846463,72.000000,1.000000,4379.789063,4379.228027,4373.370605,4377.045898,4365.718262,4371.009766,4367.684082,4368.191895,4360.873535,4338.090332,4487.481445,4531.367676,4404.070313,4447.278320,5173.000000,0.000000,4.000000,,,,0.000000,4.000000,4.000000,4.000000,4.000000,4.000000,4.000000,4.000000,4.000000,4.000000,4.000000,4.000000,4.000000,4.000000,4.000000,100.000000,,,,,,,,,,,,,,,,,18.000000,1.000000,0.384713,-0.548370,-0.352448,-0.653503,0.991454,0.036015,0.154560,-34.773228,-29.740063,23.497290,,,,,,,,,,,,,,,,,,,,,,,,,,,,,,,,,,,,,,,,,,,,,,,,,,,,,,,,,,,,,,,,,,,,,,,,,,,,,,,,,,,,,,,,,,,,,,,,,,,,,,,,,,,,,,,,,,,
1717571942.854271,73.000000,1.000000,4379.209473,4378.953125,4372.863281,4376.624023,4365.234863,4370.256348,4367.243652,4367.585449,4359.936035,4337.286133,4486.773438,4530.683594,4404.230957,4446.687988,4802.000000,0.000000,4.000000,,,,0.000000,4.000000,4.000000,4.000000,4.000000,4.000000,4.000000,4.000000,4.000000,4.000000,4.000000,4.000000,4.000000,4.000000,4.000000,100.000000,,,,,,,,,,,,,,,,,,,,,,,,,,,,,,,,,,,,,,,,,,,,,,,,,,,,,,,,,,,,,,,,,,,,,,,,,,,,,,,,,,,,,,,,,,,,,,,,,,,,,,,,,,,,,,,,,,,,,,,,,,,,,,,,,,,,,,,,,,,,,,,
1717571942.862079,74.000000,1.000000,4378.629883,4378.677734,4372.355957,4376.202148,4364.751465,4369.503418,4366.802734,4366.979004,4358.998535,4336.482422,4486.065918,4530.000000,4404.391113,4446.097656,6040.000000,0.000000,4.000000,,,,0.000000,4.000000,4.000000,4.000000,4.000000,4.000000,4.000000,4.000000,4.000000,4.000000,4.000000,4.000000,4.000000,4.000000,4.000000,100.000000,,,,,,,,,,,,,,,,,,,,,,,,,,,,,,,,,,,,,,,,,,,,,,,,,,,,,,,,,,,,,,,,,,,,,,,,,,,,,,,,,,,,,,,,,,,,,,,,,,,,,,,,,,,,,,,,,,,,,,,,,,,,,,,,,,,,,,,,,,,,,,,
1717571942.869887,75.000000,1.000000,4378.050293,4378.402832,4371.848145,4375.779785,4364.268066,4368.750000,4366.362305,4366.373047,4358.061035,4335.678223,4485.357910,4529.316406,4404.551270,4445.507324,5845.000000,0.000000,4.000000,,,,0.000000,4.000000,4.000000,4.000000,4.000000,4.000000,4.000000,4.000000,4.000000,4.000000,4.000000,4.000000,4.000000,4.000000,4.000000,100.000000,,,,,,,,,,,,,,,,,,,,,,,,,,,,,,,,,,,,,,,,,,,,,,,,,,,,,,,,,,,,,,,,,,,,0.000000,0.000000,1.000000,0.000000,512.000000,1.000000,,,,,,,,,,,,,,,,,,,,,,,,,,,,,,,,,,,,,,,,,,,,,,,,,,,,,,,,,,,,,,,,,,,,,,
1717571942.877695,76.000000,1.000000,4377.470703,4378.127441,4371.340820,4375.357910,4363.784668,4367.996582,4365.921387,4365.766602,4357.123535,4334.874512,4484.649902,4528.632324,4404.711426,4444.916992,6725.000000,0.000000,4.000000,,,,0.000000,4.000000,4.000000,4.000000,4.000000,4.000000,4.000000,4.000000,4.000000,4.000000,4.000000,4.000000,4.000000,4.000000,4.000000,100.000000,,,,,,,,,,,,,,,,,19.000000,0.000000,0.384672,-0.548340,-0.352539,-0.653503,0.987303,0.037236,0.152607,-34.808411,-29.724821,23.469061,,,,,,,,,,,,,,,,,,,,,,,,,,,,,,,,,,,,,,,,,,,,,,,,,,,,,,,,,,,,,,,,,,,,,,,,,,,,,,,,,,,,,,,,,,,,,,,,,,,,,,,,,,,,,,,,,,,
1717571942.885503,77.000000,1.000000,4376.891113,4377.852539,4370.833496,4374.936035,4363.301270,4367.243652,4365.480957,4365.160156,4356.186035,4334.070313,4483.942383,4527.948730,4404.871582,4444.327148,6770.000000,0.000000,4.000000,,,,0.000000,4.000000,4.000000,4.000000,4.000000,4.000000,4.000000,4.000000,4.000000,4.000000,4.000000,4.000000,4.000000,4.000000,4.000000,100.000000,,,,,,,,,,,,,,,,,,,,,,,,,,,,,,,,,,,,,,,,,,,,,,,,,,,,,,,,,,,,,,,,,,,,,,,,,,,,,,,,,,,,,,,,,,,,,,,,,,,,,,,,,,,,,,,,,,,,,,,,,,,,,,,,,,,,,,,,,,,,,,,
1717571942.893311,78.000000,1.000000,4376.311523,4377.577637,4370.325684,4374.513672,4362.817871,4366.490234,4365.040039,4364.553711,4355.248535,4333.266602,4483.234375,4527.265137,4405.032227,4443.736816,6040.000000,0.000000,4.000000,,,,0.000000,4.000000,4.000000,4.000000,4.000000,4.000000,4.000000,4.000000,4.000000,4.000000,4.000000,4.000000,4.000000,4.000000,4.000000,100.000000,,,,,,,,,,,,,,,,,,,,,,,,,,,,,,,,,,,,,,,,,,,,,,,,,,,,,,,,,,,,,,,,,,,,,,,,,,,,,,,,,,,,,,,,,,,,,,,,,,,,,,,,,,,,,,,,,,,,,,,,,,,,,,,,,,,,,,,,,,,,,,,
1717571942.901119,79.000000,1.000000,4375.731934,4377.302246,4369.818359,4374.091797,4362.334473,4365.737305,4364.599121,4363.947754,4354.311035,4332.462402,4482.526855,4526.581055,4405.192383,4443.146484,5833.000000,0.000000,4.000000,,,,0.000000,4.000000,4.000000,4.000000,4.000000,4.000000,4.000000,4.000000,4.000000,4.000000,4.000000,4.000000,4.000000,4.000000,4.000000,100.000000,,,,,,,,,,,,,,,,,,,,,,,,,,,,,,,,,,,,,,,,,,,,,,,,,,,,,,,,,,,,,,,,,,,,0.000000,0.000000,1.000000,0.000000,512.000000,1.000000,,,,,,,,,,,,,,,,,,,,,,,,,,,,,,,,,,,,,,,,,,,,,,,,,,,,,,,,,,,,,,,,,,,,,,
1717571942.908927,80.000000,1.000000,4375.152344,4377.027344,4369.311035,4373.669922,4361.851074,4364.983887,4364.158691,4363.341309,4353.373535,4331.658691,4481.818848,4525.897461,4405.352539,4442.556152,5905.250000,0.000000,4.000000,,,,0.000000,4.000000,4.000000,4.000000,4.000000,4.000000,4.000000,4.000000,4.000000,4.000000,4.000000,4.000000,4.000000,4.000000,4.000000,100.000000,,,,,,,,,,,,,,,,,20.000000,1.000000,0.384879,-0.548279,-0.352692,-0.653351,0.991698,0.035038,0.151141,-34.744946,-29.685963,23.466999,,,,,,,,,,,,,,,,,,,,,,,,,,,,,,,,,,,,,,,,,,,,,,,,,,,,,,,,,,,,,,,,,,,,,,,,,,,,,,,,,,,,,,,,,,,,,,,,,,,,,,,,,,,,,,,,,,,
1717571942.916735,81.000000,1.000000,4374.572754,4376.751953,4368.803223,4373.248047,4361.367676,4364.230957,4363.717773,4362.734863,4352.436035,4330.854492,4481.111328,4525.213867,4405.512695,4441.965820,5931.333496,0.000000,4.000000,,,,0.000000,4.000000,4.000000,4.000000,4.000000,4.000000,4.000000,4.000000,4.000000,4.000000,4.000000,4.000000,4.000000,4.000000,4.000000,100.000000,,,,,,,,,,,,,,,,,,,,,,,,,,,,,,,,,,,,,,,,,,,,,,,,,,,,,,,,,,,,,,,,,,,,,,,,,,,,,,,,,,,,,,,,,,,,,,,,,,,,,,,,,,,,,,,,,,,,,,,,,,,,,,,,,,,,,,,,,,,,,,,
1717571942.924543,82.000000,1.000000,4373.993164,4376.477051,4368.295898,4372.825684,4360.884277,4363.477539,4363.277344,4362.128906,4351.498535,4330.050781,4480.403320,4524.529785,4405.672852,4441.375488,5957.416504,0.000000,4.000000,,,,0.000000,4.000000,4.000000,4.000000,4.000000,4.000000,4.000000,4.000000,4.000000,4.000000,4.000000,4.000000,4.000000,4.000000,4.000000,100.000000,,,,,,,,,,,,,,,,,,,,,,,,,,,,,,,,,,,,,,,,,,,,,,,,,,,,,,,,,,,,,,,,,,,,,,,,,,,,,,,,,,,,,,,,,,,,,,,,,,,,,,,,,,,,,,,,,,,,,,,,,,,,,,,,,,,,,,,,,,,,,,,
1717571942.932351,83.000000,1.000000,4373.413574,4376.202148,4367.788574,4372.403809,4360.400879,4362.724121,4362.836426,4361.522461,4350.561035,4329.246582,4479.695313,4523.846191,4405.833496,4440.785156,5983.500000,0.000000,4.000000,,,,0.000000,4.000000,4.000000,4.000000,4.000000,4.000000,4.000000,4.000000,4.000000,4.000000,4.000000,4.000000,4.000000,4.000000,4.000000,100.000000,,,,,,,,,,,,,,,,,,,,,,,,,,,,,1.000000,0.000000,0.000000,,,,,,,,,,,,,,,,,,,,,,,,,,,,,,,,,,,,,0.000000,0.000000,1.000000,0.000000,512.000000,1.000000,0.355977,0.054501,0.037226,0.038848,0.012190,0.162433,0.091834,0.077653,0.038132,0.022460,0.401675,0.048165,0.016323,0.013458,0.005360,2.081155,0.400482,0.219325,0.171934,0.041517,0.391829,0.158243,0.094673,0.022082,0.011943,0.473218,0.110239,0.080057,0.018782,0.010214,0.251064,0.111286,0.062532,0.021753,0.010691,0.224617,0.118234,0.076782,0.025375,0.012591,0.318341,0.189154,0.123577,0.033843,0.018238,0.552284,0.256205,0.184900,0.030793,0.020279,0.802820,0.166998,0.080291,0.032568,0.015436,0.632726,0.150043,0.079619,0.051392,0.016138,0.628076,0.151211,0.132096,0.041134,0.029937,0.489734,0.128330,0.104238,0.054129,0.021392
1717571942.940159,84.000000,1.000000,4372.833984,4375.926758,4367.280762,4371.981934,4359.916992,4361.971191,4362.395996,4360.916016,4349.623535,4328.442871,4478.987793,4523.162598,4405.993652,4440.194824,6009.583496,0.000000,4.000000,,,,0.000000,4.000000,4.000000,4.000000,4.000000,4.000000,4.000000,4.000000,4.000000,4.000000,4.000000,4.000000,4.000000,4.000000,4.000000,100.000000,,,,,,,,,,,,,,,,,21.000000,0.000000,0.385085,-0.548218,-0.352844,-0.653198,0.996093,0.032841,0.149676,-34.681480,-29.647104,23.464939,,,,,,,,,,,,,,,,,,,,,,,,,,,,,,,,,,,,,,,,,,,,,,,,,,,,,,,,,,,,,,,,,,,,,,,,,,,,,,,,,,,,,,,,,,,,,,,,,,,,,,,,,,,,,,,,,,,
1717571942.947967,85.000000,1.000000,4372.254395,4375.651855,4366.773438,4371.560059,4359.433594,4361.217773,4361.955078,4360.310059,4348.686035,4327.638672,4478.279785,4522.478516,4406.153809,4439.604492,6035.666504,0.000000,4.000000,,,,0.000000,4.000000,4.000000,4.000000,4.000000,4.000000,4.000000,4.000000,4.000000,4.000000,4.000000,4.000000,4.000000,4.000000,4.000000,100.000000,,,,,,,,,,,,,,,,,,,,,,,,,,,,,,,,,,,,,,,,,,,,,,,,,,,,,,,,,,,,,,,,,,,,,,,,,,,,,,,,,,,,,,,,,,,,,,,,,,,,,,,,,,,,,,,,,,,,,,,,,,,,,,,,,,,,,,,,,,,,,,,
1717571942.955775,86.000000,1.000000,4371.674805,4375.376465,4366.266113,4371.137695,4358.950195,4360.464844,4361.514648,4359.703613,4347.748535,4326.834961,4477.572266,4521.794922,4406.313965,4439.014648,6061.750000,0.000000,4.000000,,,,0.000000,4.000000,4.000000,4.000000,4.000000,4.000000,4.000000,4.000000,4.000000,4.000000,4.000000,4.000000,4.000000,4.000000,4.000000,100.000000,,,,,,,,,,,,,,,,,,,,,,,,,,,,,,,,,,,,,,,,,,,,,,,,,,,,,,,,,,,,,,,,,,,,,,,,,,,,,,,,,,,,,,,,,,,,,,,,,,,,,,,,,,,,,,,,,,,,,,,,,,,,,,,,,,,,,,,,,,,,,,,
1717571942.963583,87.000000,1.000000,4371.095215,4375.101563,4365.758789,4370.715820,4358.466797,4359.711426,4361.073730,4359.097168,4346.811035,4326.030762,4476.864258,4521.111328,4406.474121,4438.424316,6087.833496,0.000000,4.000000,,,,0.000000,4.000000,4.000000,4.000000,4.000000,4.000000,4.000000,4.000000,4.000000,4.000000,4.000000,4.000000,4.000000,4.000000,4.000000,100.000000,,,,,,,,,,,,,,,,,,,,,,,,,,,,,,,,,,,,,,,,,,,,,,,,,,,,,,,,,,,,,,,,,,,,0.000000,0.000000,1.000000,0.000000,512.000000,1.000000,,,,,,,,,,,,,,,,,,,,,,,,,,,,,,,,,,,,,,,,,,,,,,,,,,,,,,,,,,,,,,,,,,,,,,
1717571942.971391,88.000000,1.000000,4370.515625,4374.826172,4365.250977,4370.293945,4357.983398,4358.958496,4360.632813,4358.490723,4345.873535,4325.227051,4476.156738,4520.427246,4406.634766,4437.833984,6113.916504,0.000000,4.000000,,,,0.000000,4.000000,4.000000,4.000000,4.000000,4.000000,4.000000,4.000000,4.000000,4.000000,4.000000,4.000000,4.000000,4.000000,4.000000,100.000000,,,,,,,,,,,,,,,,,22.000000,0.000000,0.385054,-0.548279,-0.352783,-0.653198,0.995117,0.033329,0.148211,-34.713333,-29.665728,23.435112,,,,,,,,,,,,,,,,,,,,,,,,,,,,,,,,,,,,,,,,,,,,,,,,,,,,,,,,,,,,,,,,,,,,,,,,,,,,,,,,,,,,,,,,,,,,,,,,,,,,,,,,,,,,,,,,,,,
1717571942.979199,89.000000,1.000000,4369.936035,4374.551270,4364.743652,4369.871582,4357.500000,4358.205078,4360.192383,4357.884766,4344.936035,4324.422852,4475.448730,4519.743652,4406.794922,4437.243652,6140.000000,0.000000,4.000000,,,,0.000000,4.000000,4.000000,4.000000,4.000000,4.000000,4.000000,4.000000,4.000000,4.000000,4.000000,4.000000,4.000000,4.000000,4.000000,100.000000,,,,,,,,,,,,,,,,,,,,,,,,,,,,,,,,,,,,,,,,,,,,,,,,,,,,,,,,,,,,,,,,,,,,,,,,,,,,,,,,,,,,,,,,,,,,,,,,,,,,,,,,,,,,,,,,,,,,,,,,,,,,,,,,,,,,,,,,,,,,,,,
1717571942.987007,90.000000,1.000000,4369.356445,4374.276367,4364.236328,4369.449707,4357.016602,4357.452148,4359.751465,4357.278320,4343.998535,4323.619141,4474.740723,4519.060059,4406.955078,4436.653320,6166.083496,0.000000,4.000000,,,,0.000000,4.000000,4.000000,4.000000,4.000000,4.000000,4.000000,4.000000,4.000000,4.000000,4.000000,4.000000,4.000000,4.000000,4.000000,100.000000,,,,,,,,,,,,,,,,,,,,,,,,,,,,,,,,,,,,,,,,,,,,,,,,,,,,,,,,,,,,,,,,,,,,,,,,,,,,,,,,,,,,,,,,,,,,,,,,,,,,,,,,,,,,,,,,,,,,,,,,,,,,,,,,,,,,,,,,,,,,,,,
1717571942.994815,91.000000,1.000000,4368.776855,4374.000977,4363.728516,4369.027832,4356.533203,4356.698730,4359.311035,4356.671875,4343.061035,4322.814941,4474.033203,4518.375977,4407.115234,4436.062988,6192.166504,0.000000,4.000000,,,,0.000000,4.000000,4.000000,4.000000,4.000000,4.000000,4.000000,4.000000,4.000000,4.000000,4.000000,4.000000,4.000000,4.000000,4.000000,100.000000,,,,,,,,,,,,,,,,,,,,,,,,,,,,,,,,,,,,,,,,,,,,,,,,,,,,,,,,,,,,,,,,,,,,0.000000,0.000000,1.000000,0.000000,512.000000,1.000000,,,,,,,,,,,,,,,,,,,,,,,,,,,,,,,,,,,,,,,,,,,,,,,,,,,,,,,,,,,,,,,,,,,,,,
1717571943.002623,92.000000,1.000000,4368.197266,4373.726074,4363.221191,4368.605957,4356.049805,4355.945313,4358.870117,4356.065918,4342.123535,4322.011230,4473.325195,4517.692383,4407.275879,4435.472656,6218.250000,0.000000,4.000000,,,,0.000000,4.000000,4.000000,4.000000,4.000000,4.000000,4.000000,4.000000,4.000000,4.000000,4.000000,4.000000,4.000000,4.000000,4.000000,100.000000,,,,,,,,,,,,,,,,,23.000000,1.000000,0.385197,-0.548248,-0.352844,-0.653107,0.988280,0.032597,0.142840,-34.712029,-29.704212,23.471813,,,,,,,,,,,,,,,,,,,,,,,,,,,,,,,,,,,,,,,,,,,,,,,,,,,,,,,,,,,,,,,,,,,,,,,,,,,,,,,,,,,,,,,,,,,,,,,,,,,,,,,,,,,,,,,,,,,
1717571943.010431,93.000000,1.000000,4367.617676,4373.450684,4362.713867,4368.183594,4355.566406,4355.192383,4358.429688,4355.459473,4341.186035,4321.207031,4472.617676,4517.008789,4407.436035,4434.882324,6244.333496,0.000000,4.000000,,,,0.000000,4.000000,4.000000,4.000000,4.000000,4.000000,4.000000,4.000000,4.000000,4.000000,4.000000,4.000000,4.000000,4.000000,4.000000,100.000000,,,,,,,,,,,,,,,,,,,,,,,,,,,,,,,,,,,,,,,,,,,,,,,,,,,,,,,,,,,,,,,,,,,,,,,,,,,,,,,,,,,,,,,,,,,,,,,,,,,,,,,,,,,,,,,,,,,,,,,,,,,,,,,,,,,,,,,,,,,,,,,
1717571943.018239,94.000000,1.000000,4367.038086,4373.175781,4362.206055,4367.761719,4355.083008,4354.438965,4357.988770,4354.853027,4340.248535,4320.403320,4471.909668,4516.324707,4407.596191,4434.291992,6270.416504,0.000000,4.000000,,,,0.000000,4.000000,4.000000,4.000000,4.000000,4.000000,4.000000,4.000000,4.000000,4.000000,4.000000,4.000000,4.000000,4.000000,4.000000,100.000000,,,,,,,,,,,,,,,,,,,,,,,,,,,,,,,,,,,,,,,,,,,,,,,,,,,,,,,,,,,,,,,,,,,,,,,,,,,,,,,,,,,,,,,,,,,,,,,,,,,,,,,,,,,,,,,,,,,,,,,,,,,,,,,,,,,,,,,,,,,,,,,
1717571943.026047,95.000000,1.000000,4366.458496,4372.900879,4361.698730,4367.339844,4354.599121,4353.686035,4357.547852,4354.246582,4339.311035,4319.599121,4471.202148,4515.641113,4407.756348,4433.702148,6296.500000,0.000000,4.000000,,,,0.000000,4.000000,4.000000,4.000000,4.000000,4.000000,4.000000,4.000000,4.000000,4.000000,4.000000,4.000000,4.000000,4.000000,4.000000,100.000000,,,,,,,,,,,,,,,,,,,,,,,,,,,,,,,,,,,,,,,,,,,,,,,,,,,,,,,,,,,,,,,,,,,,0.000000,0.000000,1.000000,0.000000,512.000000,1.000000,,,,,,,,,,,,,,,,,,,,,,,,,,,,,,,,,,,,,,,,,,,,,,,,,,,,,,,,,,,,,,,,,,,,,,
1717571943.033855,96.000000,1.000000,4365.878906,4372.625488,4361.191406,4366.917969,4354.115723,4352.932617,4357.107422,4353.640625,4338.373535,4318.795410,4470.494141,4514.957031,4407.916504,4433.111816,6322.583496,0.000000,4.000000,,,,0.000000,4.000000,4.000000,4.000000,4.000000,4.000000,4.000000,4.000000,4.000000,4.000000,4.000000,4.000000,4.000000,4.000000,4.000000,100.000000,,,,,,,,,,,,,,,,,24.000000,0.000000,0.385339,-0.548218,-0.352905,-0.653015,0.981443,0.031864,0.137468,-34.710724,-29.742697,23.508514,,,,,,,,,,,,,,,,,,,,,,,,,,,,,,,,,,,,,,,,,,,,,,,,,,,,,,,,,,,,,,,,,,,,,,,,,,,,,,,,,,,,,,,,,,,,,,,,,,,,,,,,,,,,,,,,,,,
1717571943.041663,97.000000,1.000000,4365.299316,4372.350586,4360.683594,4366.495605,4353.632324,4352.179688,4356.666504,4353.034180,4337.436035,4317.991211,4469.786133,4514.273438,4408.077148,4432.521484,6348.666504,0.000000,4.000000,,,,0.000000,4.000000,4.000000,4.000000,4.000000,4.000000,4.000000,4.000000,4.000000,4.000000,4.000000,4.000000,4.000000,4.000000,4.000000,100.000000,,,,,,,,,,,,,,,,,,,,,,,,,,,,,,,,,,,,,,,,,,,,,,,,,,,,,,,,,,,,,,,,,,,,,,,,,,,,,,,,,,,,,,,,,,,,,,,,,,,,,,,,,,,,,,,,,,,,,,,,,,,,,,,,,,,,,,,,,,,,,,,
1717571943.049471,98.000000,1.000000,4364.719727,4372.075195,4360.176270,4366.073730,4353.148926,4351.426270,4356.226074,4352.427734,4336.498535,4317.187500,4469.078613,4513.589844,4408.237305,4431.931152,6374.750000,0.000000,4.000000,,,,0.000000,4.000000,4.000000,4.000000,4.000000,4.000000,4.000000,4.000000,4.000000,4.000000,4.000000,4.000000,4.000000,4.000000,4.000000,100.000000,,,,,,,,,,,,,,,,,,,,,,,,,,,,,,,,,,,,,,,,,,,,,,,,,,,,,,,,,,,,,,,,,,,,,,,,,,,,,,,,,,,,,,,,,,,,,,,,,,,,,,,,,,,,,,,,,,,,,,,,,,,,,,,,,,,,,,,,,,,,,,,
1717571943.057279,99.000000,1.000000,4364.140137,4371.800293,4359.668945,4365.651855,4352.665527,4350.672852,4355.785156,4351.821777,4335.561035,4316.383789,4468.370605,4512.905762,4408.397461,4431.340820,6400.833496,0.000000,4.000000,,,,0.000000,4.000000,4.000000,4.000000,4.000000,4.000000,4.000000,4.000000,4.000000,4.000000,4.000000,4.000000,4.000000,4.000000,4.000000,100.000000,0.152344,41.666668,4.000000,3.000000,1.000000,4.000000,3.000000,3.000000,4.000000,3.000000,3.000000,1.000000,4.000000,3.000000,3.000000,3.000000,,,,,,,,,,,,,1.000000,0.000000,0.000000,,,,,,,,,,,,,,,,,,,,,,,,,,,,,,,,,,,,,0.000000,0.000000,1.000000,0.000000,512.000000,1.000000,0.446466,0.069920,0.057885,0.064336,0.018183,0.178961,0.150753,0.104629,0.051429,0.033370,0.539426,0.061539,0.023313,0.023186,0.009286,3.008854,0.539706,0.311292,0.263051,0.056525,0.575004,0.227586,0.137667,0.037693,0.017761,0.697694,0.152484,0.116485,0.030456,0.015039,0.298205,0.133918,0.085427,0.031012,0.015565,0.288390,0.152516,0.111940,0.036481,0.018608,0.430231,0.247493,0.179934,0.050132,0.027690,0.628747,0.343064,0.267940,0.042529,0.031507,1.274805,0.265142,0.121531,0.047789,0.023952,0.776221,0.189324,0.113598,0.085325,0.025058,0.774338,0.208925,0.197091,0.065242,0.046981,0.563571,0.171470,0.156964,0.084392,0.032049
1717571943.065087,100.000000,1.000000,4363.560547,4371.524902,4359.161133,4365.229492,4352.182129,4349.919922,4355.344727,4351.215332,4334.623535,4315.579590,4467.663086,4512.222168,4408.557617,4430.750488,6426.916504,0.000000,4.000000,,,,0.000000,4.000000,4.000000,4.000000,4.000000,4.000000,4.000000,4.000000,4.000000,4.000000,4.000000,4.000000,4.000000,4.000000,4.000000,100.000000,,,,,,,,,,,,,,,,,25.000000,0.000000,0.385387,-0.548218,-0.352966,-0.652954,0.981443,0.031864,0.137468,-34.506321,-29.751760,23.507662,,,,,,,,,,,,,,,,,,,,,,,,,,,,,,,,,,,,,,,,,,,,,,,,,,,,,,,,,,,,,,,,,,,,,,,,,,,,,,,,,,,,,,,,,,,,,,,,,,,,,,,,,,,,,,,,,,,
1717571943.072895,101.000000,1.000000,4362.980957,4371.250000,4358.653809,4364.807617,4351.698730,4349.166504,4354.903809,4350.608887,4333.686035,4314.775879,4466.955078,4511.538574,4408.717773,4430.160156,6453.000000,0.000000,4.000000,,,,0.000000,4.000000,4.000000,4.000000,4.000000,4.000000,4.000000,4.000000,4.000000,4.000000,4.000000,4.000000,4.000000,4.000000,4.000000,100.000000,,,,,,,,,,,,,,,,,,,,,,,,,,,,,,,,,,,,,,,,,,,,,,,,,,,,,,,,,,,,,,,,,,,,,,,,,,,,,,,,,,,,,,,,,,,,,,,,,,,,,,,,,,,,,,,,,,,,,,,,,,,,,,,,,,,,,,,,,,,,,,,
1717571943.080703,102.000000,1.000000,4362.401367,4370.975098,4358.146484,4364.385742,4351.215332,4348.413574,4354.463379,4350.002441,4332.748535,4313.971680,4466.247559,4510.854492,4408.878418,4429.569824,6479.083496,0.000000,4.000000,,,,0.000000,4.000000,4.000000,4.000000,4.000000,4.000000,4.000000,4.000000,4.000000,4.000000,4.000000,4.000000,4.000000,4.000000,4.000000,100.000000,,,,,,,,,,,,,,,,,,,,,,,,,,,,,,,,,,,,,,,,,,,,,,,,,,,,,,,,,,,,,,,,,,,,,,,,,,,,,,,,,,,,,,,,,,,,,,,,,,,,,,,,,,,,,,,,,,,,,,,,,,,,,,,,,,,,,,,,,,,,,,,
1717571943.088511,103.000000,1.000000,4361.821777,4370.699707,4357.638672,4363.963867,4350.731934,4347.660156,4354.022461,4349.396484,4331.811035,4313.167969,4465.539551,4510.170898,4409.038574,4428.979492,6505.166504,0.000000,4.000000,,,,0.000000,4.000000,4.000000,4.000000,4.000000,4.000000,4.000000,4.000000,4.000000,4.000000,4.000000,4.000000,4.000000,4.000000,4.000000,100.000000,,,,,,,,,,,,,,,,,,,,,,,,,,,,,,,,,,,,,,,,,,,,,,,,,,,,,,,,,,,,,,,,,,,,0.000000,0.000000,1.000000,0.000000,512.000000,1.000000,,,,,,,,,,,,,,,,,,,,,,,,,,,,,,,,,,,,,,,,,,,,,,,,,,,,,,,,,,,,,,,,,,,,,,
1717571943.096319,104.000000,1.000000,4361.242188,4370.424805,4357.131348,4363.541504,4350.248535,4346.907227,4353.581543,4348.790039,4330.873535,4312.363770,4464.831543,4509.487305,4409.198730,4428.389648,6531.250000,0.000000,4.000000,,,,0.000000,4.000000,4.000000,4.000000,4.000000,4.000000,4.000000,4.000000,4.000000,4.000000,4.000000,4.000000,4.000000,4.000000,4.000000,100.000000,,,,,,,,,,,,,,,,,26.000000,1.000000,0.385473,-0.548187,-0.353088,-0.652863,0.989012,0.037480,0.137956,-34.315380,-29.771147,23.539957,,,,,,,,,,,,,,,,,,,,,,,,,,,,,,,,,,,,,,,,,,,,,,,,,,,,,,,,,,,,,,,,,,,,,,,,,,,,,,,,,,,,,,,,,,,,,,,,,,,,,,,,,,,,,,,,,,,
1717571943.104127,105.000000,1.000000,4360.662598,4370.149414,4356.624023,4363.119629,4349.765137,4346.153809,4353.141113,4348.183594,4329.936035,4311.560059,4464.124023,4508.803223,4409.358887,4427.799316,6557.333496,0.000000,4.000000,,,,0.000000,4.000000,4.000000,4.000000,4.000000,4.000000,4.000000,4.000000,4.000000,4.000000,4.000000,4.000000,4.000000,4.000000,4.000000,100.000000,,,,,,,,,,,,,,,,,,,,,,,,,,,,,,,,,,,,,,,,,,,,,,,,,,,,,,,,,,,,,,,,,,,,,,,,,,,,,,,,,,,,,,,,,,,,,,,,,,,,,,,,,,,,,,,,,,,,,,,,,,,,,,,,,,,,,,,,,,,,,,,
1717571943.111934,106.000000,1.000000,4360.083008,4369.874512,4356.116211,4362.697754,4349.281738,4345.400879,4352.700195,4347.577637,4328.998535,4310.755859,4463.416016,4508.119629,4409.519043,4427.208984,6583.416504,0.000000,4.000000,,,,0.000000,4.000000,4.000000,4.000000,4.000000,4.000000,4.000000,4.000000,4.000000,4.000000,4.000000,4.000000,4.000000,4.000000,4.000000,100.000000,,,,,,,,,,,,,,,,,,,,,,,,,,,,,,,,,,,,,,,,,,,,,,,,,,,,,,,,,,,,,,,,,,,,,,,,,,,,,,,,,,,,,,,,,,,,,,,,,,,,,,,,,,,,,,,,,,,,,,,,,,,,,,,,,,,,,,,,,,,,,,,
1717571943.119742,107.000000,1.000000,4359.503418,4369.599121,4355.608887,4362.275879,4348.797852,4344.647461,4352.259766,4346.971191,4328.061035,4309.952148,4462.708496,4507.436035,4409.679688,4426.618652,6609.500000,0.000000,4.000000,,,,0.000000,4.000000,4.000000,4.000000,4.000000,4.000000,4.000000,4.000000,4.000000,4.000000,4.000000,4.000000,4.000000,4.000000,4.000000,100.000000,,,,,,,,,,,,,,,,,,,,,,,,,,,,,,,,,,,,,,,,,,,,,,,,,,,,,,,,,,,,,,,,,,,,0.000000,0.000000,1.000000,0.000000,512.000000,1.000000,,,,,,,,,,,,,,,,,,,,,,,,,,,,,,,,,,,,,,,,,,,,,,,,,,,,,,,,,,,,,,,,,,,,,,
1717571943.127550,108.000000,1.000000,4358.923828,4369.324219,4355.101563,4361.853516,4348.314453,4343.894043,4351.818848,4346.364746,4327.123535,4309.147949,4462.000488,4506.751953,4409.839844,4426.028320,6635.583496,0.000000,4.000000,,,,0.000000,4.000000,4.000000,4.000000,4.000000,4.000000,4.000000,4.000000,4.000000,4.000000,4.000000,4.000000,4.000000,4.000000,4.000000,100.000000,,,,,,,,,,,,,,,,,27.000000,0.000000,0.385560,-0.548157,-0.353210,-0.652771,0.996582,0.043096,0.138445,-34.124439,-29.790533,23.572252,,,,,,,,,,,,,,,,,,,,,,,,,,,,,,,,,,,,,,,,,,,,,,,,,,,,,,,,,,,,,,,,,,,,,,,,,,,,,,,,,,,,,,,,,,,,,,,,,,,,,,,,,,,,,,,,,,,
1717571943.135358,109.000000,1.000000,4358.344238,4369.049316,4354.594238,4361.431641,4347.831055,4343.141113,4351.378418,4345.758789,4326.186035,4308.344238,4461.292969,4506.068359,4410.000000,4425.437988,6661.666504,0.000000,4.000000,,,,0.000000,4.000000,4.000000,4.000000,4.000000,4.000000,4.000000,4.000000,4.000000,4.000000,4.000000,4.000000,4.000000,4.000000,4.000000,100.000000,,,,,,,,,,,,,,,,,,,,,,,,,,,,,,,,,,,,,,,,,,,,,,,,,,,,,,,,,,,,,,,,,,,,,,,,,,,,,,,,,,,,,,,,,,,,,,,,,,,,,,,,,,,,,,,,,,,,,,,,,,,,,,,,,,,,,,,,,,,,,,,
1717571943.143166,110.000000,1.000000,4357.764648,4368.773926,4354.086426,4361.009766,4347.347656,4342.387695,4350.937500,4345.152344,4325.248535,4307.540039,4460.584961,4505.384766,4410.160156,4424.847656,6687.750000,0.000000,4.000000,,,,0.000000,4.000000,4.000000,4.000000,4.000000,4.000000,4.000000,4.000000,4.000000,4.000000,4.000000,4.000000,4.000000,4.000000,4.000000,100.000000,,,,,,,,,,,,,,,,,,,,,,,,,,,,,,,,,,,,,,,,,,,,,,,,,,,,,,,,,,,,,,,,,,,,,,,,,,,,,,,,,,,,,,,,,,,,,,,,,,,,,,,,,,,,,,,,,,,,,,,,,,,,,,,,,,,,,,,,,,,,,,,
1717571943.150974,111.000000,1.000000,4357.185059,4368.499023,4353.579102,4360.587402,4346.864258,4341.634766,4350.496582,4344.545898,4324.311035,4306.736328,4459.876953,4504.700684,4410.320313,4424.257324,6713.833496,0.000000,4.000000,,,,0.000000,4.000000,4.000000,4.000000,4.000000,4.000000,4.000000,4.000000,4.000000,4.000000,4.000000,4.000000,4.000000,4.000000,4.000000,100.000000,,,,,,,,,,,,,,,,,,,,,,,,,,,,,,,,,,,,,,,,,,,,,,,,,,,,,,,,,,,,,,,,,,,,0.000000,0.000000,1.000000,0.000000,512.000000,1.000000,,,,,,,,,,,,,,,,,,,,,,,,,,,,,,,,,,,,,,,,,,,,,,,,,,,,,,,,,,,,,,,,,,,,,,
1717571943.158782,112.000000,1.000000,4356.605469,4368.223633,4353.071777,4360.165527,4346.380859,4340.881348,4350.056152,4343.939453,4323.373535,4305.932129,4459.169434,4504.017090,4410.480957,4423.666992,6739.916504,0.000000,4.000000,,,,0.000000,4.000000,4.000000,4.000000,4.000000,4.000000,4.000000,4.000000,4.000000,4.000000,4.000000,4.000000,4.000000,4.000000,4.000000,100.000000,,,,,,,,,,,,,,,,,28.000000,0.000000,0.385292,-0.548279,-0.353088,-0.652893,0.995605,0.037724,0.150653,-34.111996,-29.794813,23.398361,,,,,,,,,,,,,,,,,,,,,,,,,,,,,,,,,,,,,,,,,,,,,,,,,,,,,,,,,,,,,,,,,,,,,,,,,,,,,,,,,,,,,,,,,,,,,,,,,,,,,,,,,,,,,,,,,,,
1717571943.166590,113.000000,0.000000,4356.025879,4367.948730,4352.563965,4359.743652,4345.897461,4340.128418,4349.615234,4343.333496,4322.436035,4305.128418,4458.461426,4503.333496,4410.641113,4423.077148,6766.000000,0.000000,4.000000,,,,0.000000,4.000000,4.000000,4.000000,4.000000,4.000000,4.000000,4.000000,4.000000,4.000000,4.000000,4.000000,4.000000,4.000000,4.000000,100.000000,,,,,,,,,,,,,,,,,,,,,,,,,,,,,,,,,,,,,,,,,,,,,,,,,,,,,,,,,,,,,,,,,,,,,,,,,,,,,,,,,,,,,,,,,,,,,,,,,,,,,,,,,,,,,,,,,,,,,,,,,,,,,,,,,,,,,,,,,,,,,,,
1717571943.174498,114.000000,1.000000,4361.481445,4373.433105,4357.179688,4365.185059,4348.504395,4342.094238,4351.424316,4344.757813,4324.914551,4307.507324,4463.988770,4510.840332,4415.954590,4430.726563,6686.444336,0.000000,4.000000,,,,0.000000,4.000000,4.000000,4.000000,4.000000,4.000000,4.000000,4.000000,4.000000,4.000000,4.000000,4.000000,4.000000,4.000000,4.000000,100.000000,,,,,,,,,,,,,,,,,,,,,,,,,,,,,,,,,,,,,,,,,,,,,,,,,,,,,,,,,,,,,,,,,,,,,,,,,,,,,,,,,,,,,,,,,,,,,,,,,,,,,,,,,,,,,,,,,,,,,,,,,,,,,,,,,,,,,,,,,,,,,,,
1717571943.182306,115.000000,1.000000,4366.937500,4378.917480,4361.794922,4370.626953,4351.111328,4344.060059,4353.233398,4346.182129,4327.393066,4309.886230,4469.515625,4518.347656,4421.267578,4438.375977,6606.888672,0.000000,4.000000,,,,0.000000,4.000000,4.000000,4.000000,4.000000,4.000000,4.000000,4.000000,4.000000,4.000000,4.000000,4.000000,4.000000,4.000000,4.000000,100.000000,,,,,,,,,,,,,,,,,,,,,,,,,,,,,1.000000,0.000000,0.000000,,,,,,,,,,,,,,,,,,,,,,,,,,,,,,,,,,,,,0.000000,0.000000,1.000000,0.000000,512.000000,1.000000,0.556221,0.096540,0.080783,0.092735,0.024211,0.219240,0.229868,0.138050,0.065612,0.045031,0.674477,0.086697,0.032488,0.036236,0.014109,3.923726,0.694417,0.397687,0.358934,0.069193,0.738932,0.281526,0.171964,0.054424,0.022745,0.902364,0.189023,0.146548,0.043487,0.019588,0.361041,0.155465,0.107860,0.042651,0.020704,0.412043,0.192775,0.152272,0.051536,0.024885,0.639050,0.313472,0.240713,0.072042,0.037322,0.725099,0.428914,0.345917,0.058290,0.043493,1.839457,0.398661,0.172688,0.069594,0.034859,1.049275,0.253983,0.158563,0.130625,0.035252,1.000323,0.270871,0.255241,0.094729,0.064168,0.735245,0.231638,0.209749,0.119729,0.042100
1717571943.190114,116.000000,1.000000,4372.393066,4384.401855,4366.410156,4376.068359,4353.717773,4346.025879,4355.042969,4347.606934,4329.871582,4312.265137,4475.042969,4525.854492,4426.581055,4446.025879,6527.333496,0.000000,4.000000,,,,0.000000,4.000000,4.000000,4.000000,4.000000,4.000000,4.000000,4.000000,4.000000,4.000000,4.000000,4.000000,4.000000,4.000000,4.000000,100.000000,,,,,,,,,,,,,,,,,29.000000,0.000000,0.385473,-0.548218,-0.353210,-0.652771,0.991698,0.031864,0.147723,-34.218811,-29.746586,23.331406,,,,,,,,,,,,,,,,,,,,,,,,,,,,,,,,,,,,,,,,,,,,,,,,,,,,,,,,,,,,,,,,,,,,,,,,,,,,,,,,,,,,,,,,,,,,,,,,,,,,,,,,,,,,,,,,,,,
1717571943.197922,117.000000,1.000000,4377.849121,4389.886230,4371.025879,4381.509766,4356.324707,4347.991211,4356.852051,4349.031250,4332.350586,4314.644043,4480.569824,4533.361816,4431.894531,4453.675293,6447.777832,0.000000,4.000000,,,,0.000000,4.000000,4.000000,4.000000,4.000000,4.000000,4.000000,4.000000,4.000000,4.000000,4.000000,4.000000,4.000000,4.000000,4.000000,100.000000,,,,,,,,,,,,,,,,,,,,,,,,,,,,,,,,,,,,,,,,,,,,,,,,,,,,,,,,,,,,,,,,,,,,,,,,,,,,,,,,,,,,,,,,,,,,,,,,,,,,,,,,,,,,,,,,,,,,,,,,,,,,,,,,,,,,,,,,,,,,,,,
1717571943.205730,118.000000,1.000000,4383.304688,4395.370605,4375.641113,4386.951660,4358.931641,4349.957031,4358.661133,4350.456055,4334.829102,4317.022949,4486.096680,4540.869141,4437.208008,4461.324707,6368.222168,0.000000,4.000000,,,,0.000000,4.000000,4.000000,4.000000,4.000000,4.000000,4.000000,4.000000,4.000000,4.000000,4.000000,4.000000,4.000000,4.000000,4.000000,100.000000,,,,,,,,,,,,,,,,,,,,,,,,,,,,,,,,,,,,,,,,,,,,,,,,,,,,,,,,,,,,,,,,,,,,,,,,,,,,,,,,,,,,,,,,,,,,,,,,,,,,,,,,,,,,,,,,,,,,,,,,,,,,,,,,,,,,,,,,,,,,,,,
1717571943.213538,119.000000,1.000000,4388.760742,4400.854492,4380.256348,4392.393066,4361.538574,4351.922852,4360.470215,4351.880371,4337.307617,4319.401855,4491.624023,4548.375977,4442.521484,4468.974121,6288.666504,0.000000,4.000000,,,,0.000000,4.000000,4.000000,4.000000,4.000000,4.000000,4.000000,4.000000,4.000000,4.000000,4.000000,4.000000,4.000000,4.000000,4.000000,100.000000,,,,,,,,,,,,,,,,,,,,,,,,,,,,,,,,,,,,,,,,,,,,,,,,,,,,,,,,,,,,,,,,,,,,0.000000,0.000000,1.000000,0.000000,512.000000,1.000000,,,,,,,,,,,,,,,,,,,,,,,,,,,,,,,,,,,,,,,,,,,,,,,,,,,,,,,,,,,,,,,,,,,,,,
1717571943.221346,120.000000,1.000000,4394.216309,4406.338867,4384.871582,4397.834961,4364.145508,4353.888672,4362.279297,4353.304688,4339.786133,4321.780762,4497.150879,4555.883301,4447.834961,4476.624023,6209.111328,0.000000,4.000000,,,,0.000000,4.000000,4.000000,4.000000,4.000000,4.000000,4.000000,4.000000,4.000000,4.000000,4.000000,4.000000,4.000000,4.000000,4.000000,100.000000,,,,,,,,,,,,,,,,,30.000000,0.000000,0.385473,-0.548218,-0.353210,-0.652771,0.983885,0.035283,0.154072,-34.030266,-29.921926,23.398264,,,,,,,,,,,,,,,,,,,,,,,,,,,,,,,,,,,,,,,,,,,,,,,,,,,,,,,,,,,,,,,,,,,,,,,,,,,,,,,,,,,,,,,,,,,,,,,,,,,,,,,,,,,,,,,,,,,
1717571943.229154,121.000000,1.000000,4399.672363,4411.823242,4389.487305,4403.276367,4366.751953,4355.854492,4364.088379,4354.729492,4342.265137,4324.159668,4502.678223,4563.390137,4453.147949,4484.273438,6129.555664,0.000000,4.000000,,,,0.000000,4.000000,4.000000,4.000000,4.000000,4.000000,4.000000,4.000000,4.000000,4.000000,4.000000,4.000000,4.000000,4.000000,4.000000,100.000000,,,,,,,,,,,,,,,,,,,,,,,,,,,,,,,,,,,,,,,,,,,,,,,,,,,,,,,,,,,,,,,,,,,,,,,,,,,,,,,,,,,,,,,,,,,,,,,,,,,,,,,,,,,,,,,,,,,,,,,,,,,,,,,,,,,,,,,,,,,,,,,
1717571943.236962,122.000000,0.000000,4405.128418,4417.307617,4394.102539,4408.717773,4369.358887,4357.820313,4365.897461,4356.153809,4344.743652,4326.538574,4508.205078,4570.897461,4458.461426,4491.922852,6050.000000,0.000000,4.000000,,,,0.000000,4.000000,4.000000,4.000000,4.000000,4.000000,4.000000,4.000000,4.000000,4.000000,4.000000,4.000000,4.000000,4.000000,4.000000,100.000000,,,,,,,,,,,,,,,,,,,,,,,,,,,,,,,,,,,,,,,,,,,,,,,,,,,,,,,,,,,,,,,,,,,,,,,,,,,,,,,,,,,,,,,,,,,,,,,,,,,,,,,,,,,,,,,,,,,,,,,,,,,,,,,,,,,,,,,,,,,,,,,
1717571943.244870,123.000000,1.000000,4403.155273,4415.070313,4392.377930,4406.075195,4368.180176,4356.939453,4365.359863,4355.922363,4344.247070,4325.322754,4505.363770,4568.002441,4454.330078,4489.040527,5854.838867,0.000000,4.000000,,,,0.000000,4.000000,4.000000,4.000000,4.000000,4.000000,4.000000,4.000000,4.000000,4.000000,4.000000,4.000000,4.000000,4.000000,4.000000,100.000000,,,,,,,,,,,,,,,,,,,,,,,,,,,,,,,,,,,,,,,,,,,,,,,,,,,,,,,,,,,,,,,,,,,,0.000000,0.000000,1.000000,0.000000,512.000000,1.000000,,,,,,,,,,,,,,,,,,,,,,,,,,,,,,,,,,,,,,,,,,,,,,,,,,,,,,,,,,,,,,,,,,,,,,
1717571943.252678,124.000000,1.000000,4401.182617,4412.833008,4390.653320,4403.432617,4367.001465,4356.058594,4364.822266,4355.690430,4343.750977,4324.106934,4502.522949,4565.107422,4450.198730,4486.158203,5659.677246,0.000000,4.000000,,,,0.000000,4.000000,4.000000,4.000000,4.000000,4.000000,4.000000,4.000000,4.000000,4.000000,4.000000,4.000000,4.000000,4.000000,4.000000,100.000000,,,,,,,,,,,,,,,,,31.000000,1.000000,0.385508,-0.548230,-0.353198,-0.652747,0.984080,0.036259,0.153095,-34.049660,-29.913488,23.366966,,,,,,,,,,,,,,,,,,,,,,,,,,,,,,,,,,,,,,,,,,,,,,,,,,,,,,,,,,,,,,,,,,,,,,,,,,,,,,,,,,,,,,,,,,,,,,,,,,,,,,,,,,,,,,,,,,,
1717571943.260486,125.000000,1.000000,4399.209961,4410.595703,4388.928711,4400.790039,4365.822754,4355.177734,4364.284668,4355.458984,4343.254883,4322.890625,4499.681641,4562.212402,4446.066895,4483.275391,5464.516113,0.000000,4.000000,,,,0.000000,4.000000,4.000000,4.000000,4.000000,4.000000,4.000000,4.000000,4.000000,4.000000,4.000000,4.000000,4.000000,4.000000,4.000000,100.000000,,,,,,,,,,,,,,,,,,,,,,,,,,,,,,,,,,,,,,,,,,,,,,,,,,,,,,,,,,,,,,,,,,,,,,,,,,,,,,,,,,,,,,,,,,,,,,,,,,,,,,,,,,,,,,,,,,,,,,,,,,,,,,,,,,,,,,,,,,,,,,,
1717571943.268294,126.000000,1.000000,4397.237305,4408.357910,4387.204102,4398.147461,4364.644531,4354.296875,4363.747070,4355.227539,4342.758301,4321.674805,4496.840332,4559.317383,4441.935547,4480.393066,5269.354980,0.000000,4.000000,,,,0.000000,4.000000,4.000000,4.000000,4.000000,4.000000,4.000000,4.000000,4.000000,4.000000,4.000000,4.000000,4.000000,4.000000,4.000000,100.000000,,,,,,,,,,,,,,,,,,,,,,,,,,,,,,,,,,,,,,,,,,,,,,,,,,,,,,,,,,,,,,,,,,,,,,,,,,,,,,,,,,,,,,,,,,,,,,,,,,,,,,,,,,,,,,,,,,,,,,,,,,,,,,,,,,,,,,,,,,,,,,,
1717571943.276102,127.000000,1.000000,4395.264648,4406.120605,4385.479492,4395.504395,4363.465820,4353.416016,4363.209473,4354.996094,4342.262207,4320.458984,4493.999023,4556.422852,4437.804199,4477.510254,5074.193359,0.000000,4.000000,,,,0.000000,4.000000,4.000000,4.000000,4.000000,4.000000,4.000000,4.000000,4.000000,4.000000,4.000000,4.000000,4.000000,4.000000,4.000000,100.000000,,,,,,,,,,,,,,,,,,,,,,,,,,,,,,,,,,,,,,,,,,,,,,,,,,,,,,,,,,,,,,,,,,,,0.000000,0.000000,1.000000,0.000000,512.000000,1.000000,,,,,,,,,,,,,,,,,,,,,,,,,,,,,,,,,,,,,,,,,,,,,,,,,,,,,,,,,,,,,,,,,,,,,,
1717571943.283910,0.000000,1.000000,4393.291992,4403.883301,4383.755371,4392.861816,4362.287109,4352.535156,4362.671387,4354.764160,4341.766113,4319.243164,4491.158203,4553.527832,4433.672363,4474.627930,3969.000000,0.000000,4.000000,,,,0.000000,4.000000,4.000000,4.000000,4.000000,4.000000,4.000000,4.000000,4.000000,4.000000,4.000000,4.000000,4.000000,4.000000,4.000000,100.000000,,,,,,,,,,,,,,,,,0.000000,1.000000,0.385544,-0.548242,-0.353186,-0.652722,0.984275,0.037236,0.152118,-34.069054,-29.905050,23.335667,,,,,,,,,,,,,,,,,,,,,,,,,,,,,,,,,,,,,,,,,,,,,,,,,,,,,,,,,,,,,,,,,,,,,,,,,,,,,,,,,,,,,,,,,,,,,,,,,,,,,,,,,,,,,,,,,,,
1717571943.291718,1.000000,1.000000,4391.319336,4401.645996,4382.030762,4390.219238,4361.108398,4351.654297,4362.133789,4354.532715,4341.269531,4318.027344,4488.316895,4550.632813,4429.541016,4471.745117,5514.000000,0.000000,4.000000,,,,0.000000,4.000000,4.000000,4.000000,4.000000,4.000000,4.000000,4.000000,4.000000,4.000000,4.000000,4.000000,4.000000,4.000000,4.000000,100.000000,,,,,,,,,,,,,,,,,,,,,,,,,,,,,,,,,,,,,,,,,,,,,,,,,,,,,,,,,,,,,,,,,,,,,,,,,,,,,,,,,,,,,,,,,,,,,,,,,,,,,,,,,,,,,,,,,,,,,,,,,,,,,,,,,,,,,,,,,,,,,,,
1717571943.299526,2.000000,1.000000,4389.346680,4399.408691,4380.306152,4387.576660,4359.929688,4350.773438,4361.596191,4354.301270,4340.773438,4316.811523,4485.475586,4547.737793,4425.409668,4468.862793,3862.000000,0.000000,4.000000,,,,0.000000,4.000000,4.000000,4.000000,4.000000,4.000000,4.000000,4.000000,4.000000,4.000000,4.000000,4.000000,4.000000,4.000000,4.000000,100.000000,,,,,,,,,,,,,,,,,,,,,,,,,,,,,,,,,,,,,,,,,,,,,,,,,,,,,,,,,,,,,,,,,,,,,,,,,,,,,,,,,,,,,,,,,,,,,,,,,,,,,,,,,,,,,,,,,,,,,,,,,,,,,,,,,,,,,,,,,,,,,,,
1717571943.307334,3.000000,1.000000,4387.374023,4397.171387,4378.581543,4384.933594,4358.750977,4349.892578,4361.058594,4354.069336,4340.276855,4315.595703,4482.634277,4544.842773,4421.277832,4465.979980,3637.000000,0.000000,4.000000,,,,0.000000,4.000000,4.000000,4.000000,4.000000,4.000000,4.000000,4.000000,4.000000,4.000000,4.000000,4.000000,4.000000,4.000000,4.000000,100.000000,,,,,,,,,,,,,,,,,,,,,,,,,,,,,1.000000,0.000000,0.000000,,,,,,,,,,,,,,,,,,,,,,,,,,,,,,,,,,,,,0.000000,0.000000,1.000000,0.000000,512.000000,0.207333,0.648207,0.122490,0.097649,0.115319,0.028158,0.259741,0.310663,0.162860,0.075131,0.053487,0.759187,0.113032,0.040767,0.048494,0.018463,4.554088,0.809236,0.448125,0.429692,0.074943,0.825210,0.300028,0.185697,0.067300,0.025098,1.031347,0.204493,0.159971,0.053862,0.022244,0.416683,0.165528,0.121353,0.052978,0.024386,0.560595,0.224339,0.184458,0.065298,0.029375,0.902307,0.364919,0.286471,0.092401,0.044061,0.801290,0.480837,0.391683,0.071602,0.052132,2.320774,0.529789,0.219350,0.090002,0.044350,1.371423,0.318544,0.200371,0.173890,0.043644,1.203103,0.311565,0.287175,0.119199,0.075690,0.945232,0.284404,0.245261,0.148673,0.048307
1717571943.315141,4.000000,1.000000,4385.401367,4394.933594,4376.856934,4382.291016,4357.572266,4349.011719,4360.520996,4353.837891,4339.780762,4314.379883,4479.793457,4541.947754,4417.146484,4463.097656,5193.000000,0.000000,4.000000,,,,0.000000,4.000000,4.000000,4.000000,4.000000,4.000000,4.000000,4.000000,4.000000,4.000000,4.000000,4.000000,4.000000,4.000000,4.000000,100.000000,,,,,,,,,,,,,,,,,1.000000,1.000000,0.385579,-0.548254,-0.353174,-0.652698,0.984471,0.038213,0.151141,-34.088448,-29.896612,23.304369,,,,,,,,,,,,,,,,,,,,,,,,,,,,,,,,,,,,,,,,,,,,,,,,,,,,,,,,,,,,,,,,,,,,,,,,,,,,,,,,,,,,,,,,,,,,,,,,,,,,,,,,,,,,,,,,,,,
1717571943.322949,5.000000,1.000000,4383.428223,4392.696289,4375.132324,4379.648438,4356.393555,4348.130859,4359.983398,4353.606445,4339.284668,4313.163574,4476.952148,4539.052734,4413.014648,4460.214844,5395.000000,0.000000,4.000000,,,,0.000000,4.000000,4.000000,4.000000,4.000000,4.000000,4.000000,4.000000,4.000000,4.000000,4.000000,4.000000,4.000000,4.000000,4.000000,100.000000,,,,,,,,,,,,,,,,,,,,,,,,,,,,,,,,,,,,,,,,,,,,,,,,,,,,,,,,,,,,,,,,,,,,,,,,,,,,,,,,,,,,,,,,,,,,,,,,,,,,,,,,,,,,,,,,,,,,,,,,,,,,,,,,,,,,,,,,,,,,,,,
1717571943.330757,6.000000,1.000000,4381.455566,4390.458984,4373.407715,4377.005859,4355.214844,4347.250000,4359.445801,4353.374512,4338.788086,4311.947754,4474.110840,4536.158203,4408.883301,4457.332520,5193.000000,0.000000,4.000000,,,,0.000000,4.000000,4.000000,4.000000,4.000000,4.000000,4.000000,4.000000,4.000000,4.000000,4.000000,4.000000,4.000000,4.000000,4.000000,100.000000,,,,,,,,,,,,,,,,,,,,,,,,,,,,,,,,,,,,,,,,,,,,,,,,,,,,,,,,,,,,,,,,,,,,,,,,,,,,,,,,,,,,,,,,,,,,,,,,,,,,,,,,,,,,,,,,,,,,,,,,,,,,,,,,,,,,,,,,,,,,,,,
1717571943.338565,7.000000,1.000000,4379.482910,4388.221680,4371.683105,4374.363281,4354.036621,4346.369141,4358.908203,4353.143066,4338.291992,4310.731934,4471.269531,4533.263184,4404.751953,4454.450195,4699.000000,0.000000,4.000000,,,,0.000000,4.000000,4.000000,4.000000,4.000000,4.000000,4.000000,4.000000,4.000000,4.000000,4.000000,4.000000,4.000000,4.000000,4.000000,100.000000,,,,,,,,,,,,,,,,,,,,,,,,,,,,,,,,,,,,,,,,,,,,,,,,,,,,,,,,,,,,,,,,,,,,0.000000,0.000000,1.000000,0.000000,512.000000,0.207333,,,,,,,,,,,,,,,,,,,,,,,,,,,,,,,,,,,,,,,,,,,,,,,,,,,,,,,,,,,,,,,,,,,,,,
1717571943.346373,8.000000,1.000000,4377.510254,4385.984375,4369.958496,4371.720215,4352.857910,4345.487793,4358.370605,4352.911621,4337.795898,4309.516113,4468.428223,4530.368164,4400.620117,4451.567383,5173.000000,0.000000,4.000000,,,,0.000000,4.000000,4.000000,4.000000,4.000000,4.000000,4.000000,4.000000,4.000000,4.000000,4.000000,4.000000,4.000000,4.000000,4.000000,100.000000,,,,,,,,,,,,,,,,,2.000000,1.000000,0.385614,-0.548267,-0.353162,-0.652673,0.984666,0.039189,0.150165,-34.107841,-29.888172,23.273069,,,,,,,,,,,,,,,,,,,,,,,,,,,,,,,,,,,,,,,,,,,,,,,,,,,,,,,,,,,,,,,,,,,,,,,,,,,,,,,,,,,,,,,,,,,,,,,,,,,,,,,,,,,,,,,,,,,
1717571943.354181,9.000000,1.000000,4375.537598,4383.747070,4368.233887,4369.077637,4351.679199,4344.606934,4357.833008,4352.679688,4337.299316,4308.300293,4465.587402,4527.473145,4396.488770,4448.685059,4802.000000,0.000000,4.000000,,,,0.000000,4.000000,4.000000,4.000000,4.000000,4.000000,4.000000,4.000000,4.000000,4.000000,4.000000,4.000000,4.000000,4.000000,4.000000,100.000000,,,,,,,,,,,,,,,,,,,,,,,,,,,,,,,,,,,,,,,,,,,,,,,,,,,,,,,,,,,,,,,,,,,,,,,,,,,,,,,,,,,,,,,,,,,,,,,,,,,,,,,,,,,,,,,,,,,,,,,,,,,,,,,,,,,,,,,,,,,,,,,
1717571943.361989,10.000000,1.000000,4373.564941,4381.509277,4366.509277,4366.435059,4350.500488,4343.726074,4357.295410,4352.448242,4336.803223,4307.084473,4462.746094,4524.578125,4392.357422,4445.802246,6040.000000,0.000000,4.000000,,,,0.000000,4.000000,4.000000,4.000000,4.000000,4.000000,4.000000,4.000000,4.000000,4.000000,4.000000,4.000000,4.000000,4.000000,4.000000,100.000000,,,,,,,,,,,,,,,,,,,,,,,,,,,,,,,,,,,,,,,,,,,,,,,,,,,,,,,,,,,,,,,,,,,,,,,,,,,,,,,,,,,,,,,,,,,,,,,,,,,,,,,,,,,,,,,,,,,,,,,,,,,,,,,,,,,,,,,,,,,,,,,
1717571943.369797,11.000000,1.000000,4371.592285,4379.271973,4364.785156,4363.792480,4349.321777,4342.845215,4356.757813,4352.216797,4336.306641,4305.868652,4459.904785,4521.683105,4388.225586,4442.919922,5845.000000,0.000000,4.000000,,,,0.000000,4.000000,4.000000,4.000000,4.000000,4.000000,4.000000,4.000000,4.000000,4.000000,4.000000,4.000000,4.000000,4.000000,4.000000,100.000000,,,,,,,,,,,,,,,,,,,,,,,,,,,,,,,,,,,,,,,,,,,,,,,,,,,,,,,,,,,,,,,,,,,,0.000000,0.000000,1.000000,0.000000,512.000000,0.207333,,,,,,,,,,,,,,,,,,,,,,,,,,,,,,,,,,,,,,,,,,,,,,,,,,,,,,,,,,,,,,,,,,,,,,
1717571943.377605,12.000000,1.000000,4369.619629,4377.034668,4363.060547,4361.149902,4348.143066,4341.964355,4356.220215,4351.985352,4335.810547,4304.652832,4457.063477,4518.788086,4384.094238,4440.037109,6725.000000,0.000000,4.000000,,,,0.000000,4.000000,4.000000,4.000000,4.000000,4.000000,4.000000,4.000000,4.000000,4.000000,4.000000,4.000000,4.000000,4.000000,4.000000,100.000000,,,,,,,,,,,,,,,,,3.000000,0.000000,0.385649,-0.548279,-0.353149,-0.652649,0.984861,0.040166,0.149188,-34.127239,-29.879734,23.241772,,,,,,,,,,,,,,,,,,,,,,,,,,,,,,,,,,,,,,,,,,,,,,,,,,,,,,,,,,,,,,,,,,,,,,,,,,,,,,,,,,,,,,,,,,,,,,,,,,,,,,,,,,,,,,,,,,,
1717571943.385413,13.000000,1.000000,4367.646973,4374.797363,4361.335938,4358.506836,4346.964355,4341.083496,4355.682617,4351.753418,4335.314453,4303.436523,4454.222656,4515.893066,4379.962891,4437.154785,6770.000000,0.000000,4.000000,,,,0.000000,4.000000,4.000000,4.000000,4.000000,4.000000,4.000000,4.000000,4.000000,4.000000,4.000000,4.000000,4.000000,4.000000,4.000000,100.000000,,,,,,,,,,,,,,,,,,,,,,,,,,,,,,,,,,,,,,,,,,,,,,,,,,,,,,,,,,,,,,,,,,,,,,,,,,,,,,,,,,,,,,,,,,,,,,,,,,,,,,,,,,,,,,,,,,,,,,,,,,,,,,,,,,,,,,,,,,,,,,,
1717571943.393221,14.000000,1.000000,4365.674316,4372.560059,4359.611328,4355.864258,4345.785645,4340.202637,4355.144531,4351.521973,4334.817871,4302.220703,4451.381348,4512.998535,4375.831055,4434.271973,6040.000000,0.000000,4.000000,,,,0.000000,4.000000,4.000000,4.000000,4.000000,4.000000,4.000000,4.000000,4.000000,4.000000,4.000000,4.000000,4.000000,4.000000,4.000000,100.000000,,,,,,,,,,,,,,,,,,,,,,,,,,,,,,,,,,,,,,,,,,,,,,,,,,,,,,,,,,,,,,,,,,,,,,,,,,,,,,,,,,,,,,,,,,,,,,,,,,,,,,,,,,,,,,,,,,,,,,,,,,,,,,,,,,,,,,,,,,,,,,,
1717571943.401029,15.000000,1.000000,4363.701172,4370.322754,4357.886719,4353.221680,4344.606934,4339.321777,4354.606934,4351.290527,4334.321777,4301.004883,4448.540039,4510.103516,4371.699707,4431.389648,5833.000000,0.000000,4.000000,,,,0.000000,4.000000,4.000000,4.000000,4.000000,4.000000,4.000000,4.000000,4.000000,4.000000,4.000000,4.000000,4.000000,4.000000,4.000000,100.000000,,,,,,,,,,,,,,,,,,,,,,,,,,,,,,,,,,,,,,,,,,,,,,,,,,,,,,,,,,,,,,,,,,,,0.000000,0.000000,1.000000,0.000000,512.000000,0.207333,,,,,,,,,,,,,,,,,,,,,,,,,,,,,,,,,,,,,,,,,,,,,,,,,,,,,,,,,,,,,,,,,,,,,,
1717571943.408837,16.000000,1.000000,4361.728516,4368.084961,4356.162109,4350.579102,4343.428223,4338.440918,4354.069336,4351.058594,4333.825684,4299.789063,4445.698730,4507.208496,4367.568359,4428.506836,1756.451660,0.000000,4.000000,,,,0.000000,4.000000,4.000000,4.000000,4.000000,4.000000,4.000000,4.000000,4.000000,4.000000,4.000000,4.000000,4.000000,4.000000,4.000000,100.000000,,,,,,,,,,,,,,,,,4.000000,0.000000,0.385596,-0.548401,-0.352905,-0.652710,0.983396,0.031376,0.144305,-34.241394,-29.952585,23.134169,,,,,,,,,,,,,,,,,,,,,,,,,,,,,,,,,,,,,,,,,,,,,,,,,,,,,,,,,,,,,,,,,,,,,,,,,,,,,,,,,,,,,,,,,,,,,,,,,,,,,,,,,,,,,,,,,,,
1717571943.416645,17.000000,1.000000,4359.755859,4365.847656,4354.437500,4347.936523,4342.250000,4337.560059,4353.531738,4350.827148,4333.329102,4298.573242,4442.857910,4504.313477,4363.436523,4425.624512,1561.290283,0.000000,4.000000,,,,0.000000,4.000000,4.000000,4.000000,4.000000,4.000000,4.000000,4.000000,4.000000,4.000000,4.000000,4.000000,4.000000,4.000000,4.000000,100.000000,,,,,,,,,,,,,,,,,,,,,,,,,,,,,,,,,,,,,,,,,,,,,,,,,,,,,,,,,,,,,,,,,,,,,,,,,,,,,,,,,,,,,,,,,,,,,,,,,,,,,,,,,,,,,,,,,,,,,,,,,,,,,,,,,,,,,,,,,,,,,,,
1717571943.424453,18.000000,1.000000,4357.783203,4363.610352,4352.712891,4345.293457,4341.071289,4336.679199,4352.994141,4350.595703,4332.833008,4297.357422,4440.016602,4501.418457,4359.305176,4422.741699,1366.129028,0.000000,4.000000,,,,0.000000,4.000000,4.000000,4.000000,4.000000,4.000000,4.000000,4.000000,4.000000,4.000000,4.000000,4.000000,4.000000,4.000000,4.000000,100.000000,,,,,,,,,,,,,,,,,,,,,,,,,,,,,,,,,,,,,,,,,,,,,,,,,,,,,,,,,,,,,,,,,,,,,,,,,,,,,,,,,,,,,,,,,,,,,,,,,,,,,,,,,,,,,,,,,,,,,,,,,,,,,,,,,,,,,,,,,,,,,,,
1717571943.432261,19.000000,1.000000,4355.810547,4361.373047,4350.988281,4342.650879,4339.892578,4335.798340,4352.456543,4350.363770,4332.336426,4296.141602,4437.175293,4498.523438,4355.173828,4419.859375,1170.967773,0.000000,4.000000,,,,0.000000,4.000000,4.000000,4.000000,4.000000,4.000000,4.000000,4.000000,4.000000,4.000000,4.000000,4.000000,4.000000,4.000000,4.000000,100.000000,,,,,,,,,,,,,,,,,,,,,,,,,,,,,1.000000,0.000000,0.000000,,,,,,,,,,,,,,,,,,,,,,,,,,,,,,,,,,,,,0.000000,0.000000,1.000000,0.000000,512.000000,0.124137,0.755685,0.140351,0.102839,0.124748,0.028646,0.326597,0.370199,0.170435,0.077262,0.055820,0.811882,0.132235,0.045328,0.056032,0.020932,4.754310,0.843348,0.443826,0.450577,0.071401,0.812715,0.274929,0.173419,0.072177,0.023966,1.054489,0.191910,0.151947,0.058242,0.022057,0.450629,0.159109,0.120632,0.058393,0.025290,0.689438,0.235448,0.197284,0.073267,0.030569,1.155955,0.382272,0.300570,0.104485,0.045609,0.835746,0.477554,0.388343,0.077813,0.054428,2.630434,0.614524,0.245357,0.102141,0.049189,1.751382,0.359493,0.224612,0.200900,0.047372,1.356810,0.316793,0.283134,0.130337,0.077549,1.225623,0.312152,0.252090,0.161812,0.048552
1717571943.440069,20.000000,1.000000,4353.837891,4359.135742,4349.263672,4340.008301,4338.713867,4334.917480,4351.918945,4350.132324,4331.840332,4294.925781,4434.333984,4495.628418,4351.041992,4416.977051,975.806458,0.000000,4.000000,,,,0.000000,4.000000,4.000000,4.000000,4.000000,4.000000,4.000000,4.000000,4.000000,4.000000,4.000000,4.000000,4.000000,4.000000,4.000000,100.000000,,,,,,,,,,,,,,,,,5.000000,0.000000,0.385699,-0.548401,-0.352905,-0.652649,0.983396,0.031376,0.144305,-34.404179,-30.109257,23.137924,,,,,,,,,,,,,,,,,,,,,,,,,,,,,,,,,,,,,,,,,,,,,,,,,,,,,,,,,,,,,,,,,,,,,,,,,,,,,,,,,,,,,,,,,,,,,,,,,,,,,,,,,,,,,,,,,,,
1717571943.447877,21.000000,1.000000,4351.865234,4356.898438,4347.539063,4337.365723,4337.535156,4334.036621,4351.381348,4349.900879,4331.344238,4293.709473,4431.493164,4492.733887,4346.910645,4414.094238,780.645142,0.000000,4.000000,,,,0.000000,4.000000,4.000000,4.000000,4.000000,4.000000,4.000000,4.000000,4.000000,4.000000,4.000000,4.000000,4.000000,4.000000,4.000000,100.000000,,,,,,,,,,,,,,,,,,,,,,,,,,,,,,,,,,,,,,,,,,,,,,,,,,,,,,,,,,,,,,,,,,,,,,,,,,,,,,,,,,,,,,,,,,,,,,,,,,,,,,,,,,,,,,,,,,,,,,,,,,,,,,,,,,,,,,,,,,,,,,,
1717571943.455685,22.000000,1.000000,4349.892578,4354.660645,4345.814941,4334.723145,4336.356445,4333.155273,4350.843750,4349.668945,4330.847656,4292.493652,4428.651855,4489.838867,4342.779297,4411.211914,585.483887,0.000000,4.000000,,,,0.000000,4.000000,4.000000,4.000000,4.000000,4.000000,4.000000,4.000000,4.000000,4.000000,4.000000,4.000000,4.000000,4.000000,4.000000,100.000000,,,,,,,,,,,,,,,,,,,,,,,,,,,,,,,,,,,,,,,,,,,,,,,,,,,,,,,,,,,,,,,,,,,,,,,,,,,,,,,,,,,,,,,,,,,,,,,,,,,,,,,,,,,,,,,,,,,,,,,,,,,,,,,,,,,,,,,,,,,,,,,
1717571943.463493,23.000000,1.000000,4347.919922,4352.423340,4344.090332,4332.080078,4335.177734,4332.274414,4350.306152,4349.437500,4330.351563,4291.277832,4425.810547,4486.943848,4338.647461,4408.329102,390.322571,0.000000,4.000000,,,,0.000000,4.000000,4.000000,4.000000,4.000000,4.000000,4.000000,4.000000,4.000000,4.000000,4.000000,4.000000,4.000000,4.000000,4.000000,100.000000,,,,,,,,,,,,,,,,,,,,,,,,,,,,,,,,,,,,,,,,,,,,,,,,,,,,,,,,,,,,,,,,,,,,0.000000,0.000000,1.000000,0.000000,512.000000,0.124137,,,,,,,,,,,,,,,,,,,,,,,,,,,,,,,,,,,,,,,,,,,,,,,,,,,,,,,,,,,,,,,,,,,,,,
1717571943.471301,24.000000,1.000000,4345.947266,4350.186035,4342.365723,4329.437500,4333.999023,4331.393555,4349.768555,4349.206055,4329.855469,4290.062012,4422.969238,4484.048828,4334.516113,4405.446777,195.161285,0.000000,4.000000,,,,0.000000,4.000000,4.000000,4.000000,4.000000,4.000000,4.000000,4.000000,4.000000,4.000000,4.000000,4.000000,4.000000,4.000000,4.000000,100.000000,,,,,,,,,,,,,,,,,6.000000,0.000000,0.386160,-0.548340,-0.352722,-0.652527,0.989257,0.022097,0.153095,-34.450230,-29.995216,23.383625,,,,,,,,,,,,,,,,,,,,,,,,,,,,,,,,,,,,,,,,,,,,,,,,,,,,,,,,,,,,,,,,,,,,,,,,,,,,,,,,,,,,,,,,,,,,,,,,,,,,,,,,,,,,,,,,,,,
1717571943.479109,25.000000,0.000000,4343.974121,4347.948730,4340.641113,4326.794922,4332.820313,4330.512695,4349.230957,4348.974121,4329.358887,4288.846191,4420.128418,4481.153809,4330.384766,4402.563965,0.000000,0.000000,4.000000,,,,0.000000,4.000000,4.000000,4.000000,4.000000,4.000000,4.000000,4.000000,4.000000,4.000000,4.000000,4.000000,4.000000,4.000000,4.000000,100.000000,,,,,,,,,,,,,,,,,,,,,,,,,,,,,,,,,,,,,,,,,,,,,,,,,,,,,,,,,,,,,,,,,,,,,,,,,,,,,,,,,,,,,,,,,,,,,,,,,,,,,,,,,,,,,,,,,,,,,,,,,,,,,,,,,,,,,,,,,,,,,,,
1717571943.486817,26.000000,1.000000,4342.275879,4349.327148,4338.942383,4327.980957,4332.371582,4330.256348,4347.371582,4346.089844,4328.012695,4289.230957,4417.436035,4478.317383,4329.823730,4399.887695,0.000000,0.000000,4.000000,,,,0.000000,4.000000,4.000000,4.000000,4.000000,4.000000,4.000000,4.000000,4.000000,4.000000,4.000000,4.000000,4.000000,4.000000,4.000000,100.000000,,,,,,,,,,,,,,,,,,,,,,,,,,,,,,,,,,,,,,,,,,,,,,,,,,,,,,,,,,,,,,,,,,,,,,,,,,,,,,,,,,,,,,,,,,,,,,,,,,,,,,,,,,,,,,,,,,,,,,,,,,,,,,,,,,,,,,,,,,,,,,,
1717571943.494625,27.000000,1.000000,4340.577148,4350.705078,4337.243652,4329.166504,4331.922852,4330.000000,4345.512695,4343.205078,4326.666504,4289.615234,4414.743652,4475.480957,4329.262695,4397.211426,0.000000,0.000000,4.000000,,,,0.000000,4.000000,4.000000,4.000000,4.000000,4.000000,4.000000,4.000000,4.000000,4.000000,4.000000,4.000000,4.000000,4.000000,4.000000,100.000000,,,,,,,,,,,,,,,,,,,,,,,,,,,,,,,,,,,,,,,,,,,,,,,,,,,,,,,,,,,,,,,,,,,,0.000000,0.000000,1.000000,0.000000,512.000000,0.124137,,,,,,,,,,,,,,,,,,,,,,,,,,,,,,,,,,,,,,,,,,,,,,,,,,,,,,,,,,,,,,,,,,,,,,
1717571943.502433,28.000000,1.000000,4338.878418,4352.083496,4335.544922,4330.352539,4331.474121,4329.743652,4343.653809,4340.320313,4325.320313,4290.000000,4412.051270,4472.644043,4328.702148,4394.535156,0.000000,0.000000,4.000000,,,,0.000000,4.000000,4.000000,4.000000,4.000000,4.000000,4.000000,4.000000,4.000000,4.000000,4.000000,4.000000,4.000000,4.000000,4.000000,100.000000,,,,,,,,,,,,,,,,,7.000000,0.000000,0.386162,-0.548462,-0.352417,-0.652588,0.985838,0.015749,0.158467,-34.431355,-29.867792,23.305737,,,,,,,,,,,,,,,,,,,,,,,,,,,,,,,,,,,,,,,,,,,,,,,,,,,,,,,,,,,,,,,,,,,,,,,,,,,,,,,,,,,,,,,,,,,,,,,,,,,,,,,,,,,,,,,,,,,
1717571943.510241,29.000000,1.000000,4337.179688,4353.461426,4333.846191,4331.538574,4331.025879,4329.487305,4341.794922,4337.436035,4323.974121,4290.384766,4409.358887,4469.807617,4328.141113,4391.858887,0.000000,0.000000,4.000000,,,,0.000000,4.000000,4.000000,4.000000,4.000000,4.000000,4.000000,4.000000,4.000000,4.000000,4.000000,4.000000,4.000000,4.000000,4.000000,100.000000,,,,,,,,,,,,,,,,,,,,,,,,,,,,,,,,,,,,,,,,,,,,,,,,,,,,,,,,,,,,,,,,,,,,,,,,,,,,,,,,,,,,,,,,,,,,,,,,,,,,,,,,,,,,,,,,,,,,,,,,,,,,,,,,,,,,,,,,,,,,,,,
1717571943.518049,30.000000,1.000000,4335.480957,4354.839844,4332.147461,4332.724121,4330.577148,4329.230957,4339.936035,4334.551270,4322.628418,4290.769043,4406.666504,4466.971191,4327.580078,4389.182617,0.000000,0.000000,4.000000,,,,0.000000,4.000000,4.000000,4.000000,4.000000,4.000000,4.000000,4.000000,4.000000,4.000000,4.000000,4.000000,4.000000,4.000000,4.000000,100.000000,,,,,,,,,,,,,,,,,,,,,,,,,,,,,,,,,,,,,,,,,,,,,,,,,,,,,,,,,,,,,,,,,,,,,,,,,,,,,,,,,,,,,,,,,,,,,,,,,,,,,,,,,,,,,,,,,,,,,,,,,,,,,,,,,,,,,,,,,,,,,,,
1717571943.525857,31.000000,1.000000,4333.782227,4356.217773,4330.448730,4333.910156,4330.128418,4328.974121,4338.077148,4331.666504,4321.282227,4291.153809,4403.974121,4464.134766,4327.019043,4386.506348,0.000000,0.000000,4.000000,,,,0.000000,4.000000,4.000000,4.000000,4.000000,4.000000,4.000000,4.000000,4.000000,4.000000,4.000000,4.000000,4.000000,4.000000,4.000000,100.000000,,,,,,,,,,,,,,,,,,,,,,,,,,,,,,,,,,,,,,,,,,,,,,,,,,,,,,,,,,,,,,,,,,,,0.000000,0.000000,1.000000,0.000000,512.000000,0.124137,,,,,,,,,,,,,,,,,,,,,,,,,,,,,,,,,,,,,,,,,,,,,,,,,,,,,,,,,,,,,,,,,,,,,,
1717571943.533665,32.000000,1.000000,4332.083496,4357.596191,4328.750000,4335.096191,4329.679688,4328.717773,4336.217773,4328.782227,4319.936035,4291.538574,4401.282227,4461.297852,4326.458496,4383.830078,0.000000,0.000000,4.000000,,,,0.000000,4.000000,4.000000,4.000000,4.000000,4.000000,4.000000,4.000000,4.000000,4.000000,4.000000,4.000000,4.000000,4.000000,4.000000,100.000000,,,,,,,,,,,,,,,,,8.000000,0.000000,0.386162,-0.548462,-0.352417,-0.652588,1.010743,0.043584,0.143816,-34.454884,-29.797680,23.225163,,,,,,,,,,,,,,,,,,,,,,,,,,,,,,,,,,,,,,,,,,,,,,,,,,,,,,,,,,,,,,,,,,,,,,,,,,,,,,,,,,,,,,,,,,,,,,,,,,,,,,,,,,,,,,,,,,,
1717571943.541473,33.000000,0.000000,4330.384766,4358.974121,4327.051270,4336.282227,4329.230957,4328.461426,4334.358887,4325.897461,4318.589844,4291.922852,4398.589844,4458.461426,4325.897461,4381.153809,0.000000,0.000000,4.000000,,,,0.000000,4.000000,4.000000,4.000000,4.000000,4.000000,4.000000,4.000000,4.000000,4.000000,4.000000,4.000000,4.000000,4.000000,4.000000,100.000000,,,,,,,,,,,,,,,,,,,,,,,,,,,,,,,,,,,,,,,,,,,,,,,,,,,,,,,,,,,,,,,,,,,,,,,,,,,,,,,,,,,,,,,,,,,,,,,,,,,,,,,,,,,,,,,,,,,,,,,,,,,,,,,,,,,,,,,,,,,,,,,
1717571943.549181,34.000000,1.000000,4332.393066,4357.051270,4327.777832,4338.846191,4328.974121,4325.512695,4331.837402,4327.265137,4321.495605,4295.769043,4403.717773,4460.854492,4327.948730,4383.717773,0.000000,0.000000,4.000000,,,,0.000000,4.000000,4.000000,4.000000,4.000000,4.000000,4.000000,4.000000,4.000000,4.000000,4.000000,4.000000,4.000000,4.000000,4.000000,100.000000,,,,,,,,,,,,,,,,,,,,,,,,,,,,,,,,,,,,,,,,,,,,,,,,,,,,,,,,,,,,,,,,,,,,,,,,,,,,,,,,,,,,,,,,,,,,,,,,,,,,,,,,,,,,,,,,,,,,,,,,,,,,,,,,,,,,,,,,,,,,,,,
1717571943.556989,35.000000,1.000000,4334.401855,4355.128418,4328.504395,4341.410156,4328.717773,4322.563965,4329.316406,4328.632324,4324.401855,4299.615234,4408.846191,4463.248047,4330.000000,4386.282227,0.000000,0.000000,4.000000,,,,0.000000,4.000000,4.000000,4.000000,4.000000,4.000000,4.000000,4.000000,4.000000,4.000000,4.000000,4.000000,4.000000,4.000000,4.000000,100.000000,0.125000,58.333332,4.000000,4.000000,3.000000,4.000000,4.000000,4.000000,4.000000,3.000000,3.000000,1.000000,4.000000,3.000000,3.000000,3.000000,,,,,,,,,,,,,1.000000,0.000000,0.000000,,,,,,,,,,,,,,,,,,,,,,,,,,,,,,,,,,,,,0.000000,0.000000,1.000000,0.000000,128.000000,0.045975,0.918675,0.150031,0.094590,0.117931,0.025515,0.448498,0.394115,0.158014,0.071631,0.051216,0.882975,0.141891,0.044496,0.056433,0.020660,4.526780,0.786544,0.383977,0.413343,0.059465,0.733301,0.217279,0.139574,0.067425,0.019772,0.988357,0.156259,0.125074,0.055094,0.019088,0.460623,0.137835,0.105058,0.056666,0.023013,0.760960,0.222031,0.185306,0.072356,0.027994,1.333700,0.359055,0.276534,0.103615,0.041334,0.820364,0.419425,0.335303,0.074382,0.049508,2.799031,0.630618,0.240692,0.102029,0.047673,2.238694,0.372437,0.221363,0.202093,0.045028,1.525445,0.293152,0.244896,0.124547,0.069115,1.651242,0.316381,0.227368,0.154849,0.042746
1717571943.564797,36.000000,0.000000,4336.410156,4353.205078,4329.230957,4343.974121,4328.461426,4319.615234,4326.794922,4330.000000,4327.307617,4303.461426,4413.974121,4465.641113,4332.051270,4388.846191,0.000000,0.000000,4.000000,,,,0.000000,4.000000,4.000000,4.000000,4.000000,4.000000,4.000000,4.000000,4.000000,4.000000,4.000000,4.000000,4.000000,4.000000,4.000000,100.000000,,,,,,,,,,,,,,,,,9.000000,0.000000,0.385867,-0.548340,-0.352478,-0.652832,0.997070,0.026492,0.151630,-34.376064,-29.801245,23.252645,,,,,,,,,,,,,,,,,,,,,,,,,,,,,,,,,,,,,,,,,,,,,,,,,,,,,,,,,,,,,,,,,,,,,,,,,,,,,,,,,,,,,,,,,,,,,,,,,,,,,,,,,,,,,,,,,,,
1717571943.572605,37.000000,1.000000,4343.653809,4356.858887,4334.743652,4350.769043,4332.692383,4325.512695,4330.128418,4332.179688,4327.756348,4306.987305,4423.653809,4472.115234,4338.910156,4392.243652,0.000000,0.000000,4.000000,,,,0.000000,4.000000,4.000000,4.000000,4.000000,4.000000,4.000000,4.000000,4.000000,4.000000,4.000000,4.000000,4.000000,4.000000,4.000000,100.000000,,,,,,,,,,,,,,,,,,,,,,,,,,,,,,,,,,,,,,,,,,,,,,,,,,,,,,,,,,,,,,,,,,,,,,,,,,,,,,,,,,,,,,,,,,,,,,,,,,,,,,,,,,,,,,,,,,,,,,,,,,,,,,,,,,,,,,,,,,,,,,,
1717571943.580413,38.000000,0.000000,4350.897461,4360.512695,4340.256348,4357.563965,4336.922852,4331.410156,4333.461426,4334.358887,4328.205078,4310.512695,4433.333496,4478.589844,4345.769043,4395.641113,0.000000,0.000000,4.000000,,,,0.000000,4.000000,4.000000,4.000000,4.000000,4.000000,4.000000,4.000000,4.000000,4.000000,4.000000,4.000000,4.000000,4.000000,4.000000,100.000000,,,,,,,,,,,,,,,,,,,,,,,,,,,,,,,,,,,,,,,,,,,,,,,,,,,,,,,,,,,,,,,,,,,,,,,,,,,,,,,,,,,,,,,,,,,,,,,,,,,,,,,,,,,,,,,,,,,,,,,,,,,,,,,,,,,,,,,,,,,,,,,
1717571943.588221,39.000000,0.000000,4338.846191,4363.077148,4328.846191,4353.974121,4329.743652,4319.487305,4323.461426,4322.948730,4312.948730,4294.615234,4401.282227,4460.512695,4331.410156,4381.153809,0.000000,0.000000,4.000000,,,,0.000000,4.000000,4.000000,4.000000,4.000000,4.000000,4.000000,4.000000,4.000000,4.000000,4.000000,4.000000,4.000000,4.000000,4.000000,100.000000,,,,,,,,,,,,,,,,,,,,,,,,,,,,,,,,,,,,,,,,,,,,,,,,,,,,,,,,,,,,,,,,,,,,0.000000,0.000000,1.000000,0.000000,128.000000,0.045975,,,,,,,,,,,,,,,,,,,,,,,,,,,,,,,,,,,,,,,,,,,,,,,,,,,,,,,,,,,,,,,,,,,,,,
1717571943.596029,40.000000,0.000000,4322.436035,4348.205078,4318.589844,4328.717773,4322.179688,4312.051270,4319.487305,4320.256348,4305.641113,4292.179688,4386.153809,4444.743652,4325.256348,4370.897461,0.000000,0.000000,4.000000,,,,0.000000,4.000000,4.000000,4.000000,4.000000,4.000000,4.000000,4.000000,4.000000,4.000000,4.000000,4.000000,4.000000,4.000000,4.000000,100.000000,,,,,,,,,,,,,,,,,10.000000,0.000000,0.385780,-0.548401,-0.352478,-0.652832,0.997070,0.026492,0.151630,-34.438457,-29.721121,23.327381,,,,,,,,,,,,,,,,,,,,,,,,,,,,,,,,,,,,,,,,,,,,,,,,,,,,,,,,,,,,,,,,,,,,,,,,,,,,,,,,,,,,,,,,,,,,,,,,,,,,,,,,,,,,,,,,,,,
1717571943.603637,41.000000,1.000000,4323.025879,4346.077148,4319.307617,4328.846191,4322.051270,4314.410156,4321.256348,4321.384766,4307.922852,4295.871582,4392.384766,4447.128418,4328.256348,4372.512695,0.000000,0.000000,4.000000,,,,0.000000,4.000000,4.000000,4.000000,4.000000,4.000000,4.000000,4.000000,4.000000,4.000000,4.000000,4.000000,4.000000,4.000000,4.000000,100.000000,,,,,,,,,,,,,,,,,,,,,,,,,,,,,,,,,,,,,,,,,,,,,,,,,,,,,,,,,,,,,,,,,,,,,,,,,,,,,,,,,,,,,,,,,,,,,,,,,,,,,,,,,,,,,,,,,,,,,,,,,,,,,,,,,,,,,,,,,,,,,,,
1717571943.611445,42.000000,1.000000,4323.615234,4343.948730,4320.025879,4328.974121,4321.922852,4316.769043,4323.025879,4322.512695,4310.205078,4299.563965,4398.615234,4449.512695,4331.256348,4374.128418,0.000000,0.000000,4.000000,,,,0.000000,4.000000,4.000000,4.000000,4.000000,4.000000,4.000000,4.000000,4.000000,4.000000,4.000000,4.000000,4.000000,4.000000,4.000000,100.000000,,,,,,,,,,,,,,,,,,,,,,,,,,,,,,,,,,,,,,,,,,,,,,,,,,,,,,,,,,,,,,,,,,,,,,,,,,,,,,,,,,,,,,,,,,,,,,,,,,,,,,,,,,,,,,,,,,,,,,,,,,,,,,,,,,,,,,,,,,,,,,,
1717571943.619253,43.000000,1.000000,4324.205078,4341.820313,4320.743652,4329.102539,4321.794922,4319.128418,4324.794922,4323.641113,4312.487305,4303.256348,4404.846191,4451.897461,4334.256348,4375.743652,0.000000,0.000000,4.000000,,,,0.000000,4.000000,4.000000,4.000000,4.000000,4.000000,4.000000,4.000000,4.000000,4.000000,4.000000,4.000000,4.000000,4.000000,4.000000,100.000000,,,,,,,,,,,,,,,,,,,,,,,,,,,,,,,,,,,,,,,,,,,,,,,,,,,,,,,,,,,,,,,,,,,,0.000000,0.000000,1.000000,0.000000,128.000000,0.045975,,,,,,,,,,,,,,,,,,,,,,,,,,,,,,,,,,,,,,,,,,,,,,,,,,,,,,,,,,,,,,,,,,,,,,
1717571943.627061,44.000000,1.000000,4324.794922,4339.692383,4321.461426,4329.230957,4321.666504,4321.487305,4326.563965,4324.769043,4314.769043,4306.948730,4411.077148,4454.282227,4337.256348,4377.358887,0.000000,0.000000,4.000000,,,,0.000000,4.000000,4.000000,4.000000,4.000000,4.000000,4.000000,4.000000,4.000000,4.000000,4.000000,4.000000,4.000000,4.000000,4.000000,100.000000,,,,,,,,,,,,,,,,,11.000000,0.000000,0.385805,-0.548462,-0.352356,-0.652832,0.976071,0.039189,0.150165,-34.527946,-29.782341,23.427977,,,,,,,,,,,,,,,,,,,,,,,,,,,,,,,,,,,,,,,,,,,,,,,,,,,,,,,,,,,,,,,,,,,,,,,,,,,,,,,,,,,,,,,,,,,,,,,,,,,,,,,,,,,,,,,,,,,
1717571943.634869,45.000000,0.000000,4325.384766,4337.563965,4322.179688,4329.358887,4321.538574,4323.846191,4328.333496,4325.897461,4317.051270,4310.641113,4417.307617,4456.666504,4340.256348,4378.974121,0.000000,0.000000,4.000000,,,,0.000000,4.000000,4.000000,4.000000,4.000000,4.000000,4.000000,4.000000,4.000000,4.000000,4.000000,4.000000,4.000000,4.000000,4.000000,100.000000,,,,,,,,,,,,,,,,,,,,,,,,,,,,,,,,,,,,,,,,,,,,,,,,,,,,,,,,,,,,,,,,,,,,,,,,,,,,,,,,,,,,,,,,,,,,,,,,,,,,,,,,,,,,,,,,,,,,,,,,,,,,,,,,,,,,,,,,,,,,,,,
1717571943.642477,46.000000,0.000000,4332.436035,4340.512695,4327.179688,4338.589844,4325.897461,4328.205078,4338.077148,4338.589844,4328.205078,4322.051270,4416.153809,4465.641113,4346.922852,4386.538574,0.000000,0.000000,4.000000,,,,0.000000,4.000000,4.000000,4.000000,4.000000,4.000000,4.000000,4.000000,4.000000,4.000000,4.000000,4.000000,4.000000,4.000000,4.000000,100.000000,,,,,,,,,,,,,,,,,,,,,,,,,,,,,,,,,,,,,,,,,,,,,,,,,,,,,,,,,,,,,,,,,,,,,,,,,,,,,,,,,,,,,,,,,,,,,,,,,,,,,,,,,,,,,,,,,,,,,,,,,,,,,,,,,,,,,,,,,,,,,,,
1717571943.650285,47.000000,0.000000,4330.256348,4337.307617,4326.410156,4329.615234,4324.358887,4326.794922,4336.153809,4343.077148,4330.000000,4326.922852,4423.077148,4470.384766,4354.358887,4391.538574,0.000000,0.000000,4.000000,,,,0.000000,4.000000,4.000000,4.000000,4.000000,4.000000,4.000000,4.000000,4.000000,4.000000,4.000000,4.000000,4.000000,4.000000,4.000000,100.000000,,,,,,,,,,,,,,,,,,,,,,,,,,,,,,,,,,,,,,,,,,,,,,,,,,,,,,,,,,,,,,,,,,,,0.000000,0.000000,1.000000,0.000000,128.000000,0.045975,,,,,,,,,,,,,,,,,,,,,,,,,,,,,,,,,,,,,,,,,,,,,,,,,,,,,,,,,,,,,,,,,,,,,,
1717571943.658093,48.000000,1.000000,4324.230957,4334.743652,4318.205078,4326.153809,4316.153809,4318.205078,4324.936035,4330.000000,4314.743652,4312.115234,4406.153809,4453.461426,4338.397461,4375.769043,0.000000,0.000000,4.000000,,,,0.000000,4.000000,4.000000,4.000000,4.000000,4.000000,4.000000,4.000000,4.000000,4.000000,4.000000,4.000000,4.000000,4.000000,4.000000,100.000000,,,,,,,,,,,,,,,,,12.000000,0.000000,0.385805,-0.548462,-0.352356,-0.652832,0.976071,0.039189,0.150165,-34.704205,-29.898661,23.368828,,,,,,,,,,,,,,,,,,,,,,,,,,,,,,,,,,,,,,,,,,,,,,,,,,,,,,,,,,,,,,,,,,,,,,,,,,,,,,,,,,,,,,,,,,,,,,,,,,,,,,,,,,,,,,,,,,,
1717571943.665901,49.000000,0.000000,4318.205078,4332.179688,4310.000000,4322.692383,4307.948730,4309.615234,4313.717773,4316.922852,4299.487305,4297.307617,4389.230957,4436.538574,4322.436035,4360.000000,0.000000,0.000000,4.000000,,,,0.000000,4.000000,4.000000,4.000000,4.000000,4.000000,4.000000,4.000000,4.000000,4.000000,4.000000,4.000000,4.000000,4.000000,4.000000,100.000000,,,,,,,,,,,,,,,,,,,,,,,,,,,,,,,,,,,,,,,,,,,,,,,,,,,,,,,,,,,,,,,,,,,,,,,,,,,,,,,,,,,,,,,,,,,,,,,,,,,,,,,,,,,,,,,,,,,,,,,,,,,,,,,,,,,,,,,,,,,,,,,
1717571943.673909,50.000000,1.000000,4318.269043,4331.863770,4310.014648,4322.845215,4308.106445,4310.143066,4314.373535,4317.579102,4299.832520,4297.716797,4389.713867,4436.745605,4322.953613,4360.286133,224.576920,0.000000,4.000000,,,,0.000000,4.000000,4.000000,4.000000,4.000000,4.000000,4.000000,4.000000,4.000000,4.000000,4.000000,4.000000,4.000000,4.000000,4.000000,100.000000,,,,,,,,,,,,,,,,,,,,,,,,,,,,,,,,,,,,,,,,,,,,,,,,,,,,,,,,,,,,,,,,,,,,,,,,,,,,,,,,,,,,,,,,,,,,,,,,,,,,,,,,,,,,,,,,,,,,,,,,,,,,,,,,,,,,,,,,,,,,,,,
1717571943.681716,51.000000,1.000000,4318.333496,4331.548340,4310.029785,4322.998047,4308.264160,4310.670410,4315.029785,4318.234863,4300.177734,4298.126465,4390.197266,4436.952637,4323.471191,4360.571777,449.153839,0.000000,4.000000,,,,0.000000,4.000000,4.000000,4.000000,4.000000,4.000000,4.000000,4.000000,4.000000,4.000000,4.000000,4.000000,4.000000,4.000000,4.000000,100.000000,,,,,,,,,,,,,,,,,,,,,,,,,,,,,1.000000,0.000000,0.000000,,,,,,,,,,,,,,,,,,,,,,,,,,,,,,,,,,,,,0.000000,0.000000,1.000000,0.000000,128.000000,0.128374,1.146052,0.156580,0.075529,0.097312,0.019836,0.667966,0.380055,0.129423,0.060205,0.041208,0.993289,0.144654,0.038280,0.049809,0.017760,3.964713,0.658666,0.285861,0.329399,0.042836,0.628695,0.149337,0.095341,0.054684,0.013953,0.866045,0.111241,0.088131,0.045396,0.014342,0.443118,0.107516,0.079063,0.047979,0.018240,0.741643,0.187174,0.151324,0.062393,0.022427,1.378208,0.302400,0.221164,0.089476,0.032573,0.763255,0.326448,0.249918,0.062058,0.038975,2.839368,0.582663,0.206531,0.090187,0.040364,2.781664,0.367227,0.189956,0.176978,0.037362,1.730847,0.258458,0.185234,0.104166,0.053282,2.210736,0.311199,0.179037,0.130508,0.032849
1717571943.689524,52.000000,1.000000,4318.397461,4331.232910,4310.044434,4323.150879,4308.421875,4311.198242,4315.685547,4318.890625,4300.522461,4298.535645,4390.680664,4437.159668,4323.989258,4360.857910,673.730774,0.000000,4.000000,,,,0.000000,4.000000,4.000000,4.000000,4.000000,4.000000,4.000000,4.000000,4.000000,4.000000,4.000000,4.000000,4.000000,4.000000,4.000000,100.000000,,,,,,,,,,,,,,,,,13.000000,1.000000,0.385531,-0.548553,-0.352173,-0.653015,0.983641,0.033818,0.150897,-34.614285,-29.927725,23.320602,,,,,,,,,,,,,,,,,,,,,,,,,,,,,,,,,,,,,,,,,,,,,,,,,,,,,,,,,,,,,,,,,,,,,,,,,,,,,,,,,,,,,,,,,,,,,,,,,,,,,,,,,,,,,,,,,,,
1717571943.697332,53.000000,1.000000,4318.461426,4330.916992,4310.059082,4323.303711,4308.580078,4311.726074,4316.341309,4319.546387,4300.867676,4298.944824,4391.163574,4437.366699,4324.506836,4361.144043,898.307678,0.000000,4.000000,,,,0.000000,4.000000,4.000000,4.000000,4.000000,4.000000,4.000000,4.000000,4.000000,4.000000,4.000000,4.000000,4.000000,4.000000,4.000000,100.000000,,,,,,,,,,,,,,,,,,,,,,,,,,,,,,,,,,,,,,,,,,,,,,,,,,,,,,,,,,,,,,,,,,,,,,,,,,,,,,,,,,,,,,,,,,,,,,,,,,,,,,,,,,,,,,,,,,,,,,,,,,,,,,,,,,,,,,,,,,,,,,,
1717571943.705140,54.000000,1.000000,4318.525879,4330.601563,4310.073730,4323.456543,4308.737793,4312.253418,4316.997070,4320.202148,4301.212891,4299.354004,4391.646973,4437.573730,4325.024414,4361.430176,1122.884644,0.000000,4.000000,,,,0.000000,4.000000,4.000000,4.000000,4.000000,4.000000,4.000000,4.000000,4.000000,4.000000,4.000000,4.000000,4.000000,4.000000,4.000000,100.000000,,,,,,,,,,,,,,,,,,,,,,,,,,,,,,,,,,,,,,,,,,,,,,,,,,,,,,,,,,,,,,,,,,,,,,,,,,,,,,,,,,,,,,,,,,,,,,,,,,,,,,,,,,,,,,,,,,,,,,,,,,,,,,,,,,,,,,,,,,,,,,,
1717571943.712948,55.000000,1.000000,4318.589844,4330.286133,4310.088867,4323.609375,4308.895508,4312.781250,4317.652832,4320.857910,4301.558105,4299.763184,4392.130371,4437.781250,4325.542480,4361.715820,1347.461548,0.000000,4.000000,,,,0.000000,4.000000,4.000000,4.000000,4.000000,4.000000,4.000000,4.000000,4.000000,4.000000,4.000000,4.000000,4.000000,4.000000,4.000000,100.000000,,,,,,,,,,,,,,,,,,,,,,,,,,,,,,,,,,,,,,,,,,,,,,,,,,,,,,,,,,,,,,,,,,,,0.000000,0.000000,1.000000,0.000000,128.000000,0.128374,,,,,,,,,,,,,,,,,,,,,,,,,,,,,,,,,,,,,,,,,,,,,,,,,,,,,,,,,,,,,,,,,,,,,,
1717571943.720756,56.000000,1.000000,4318.653809,4329.970215,4310.103516,4323.762207,4309.053223,4313.308594,4318.308594,4321.513672,4301.903320,4300.172363,4392.613281,4437.988281,4326.060059,4362.001953,1572.038452,0.000000,4.000000,,,,0.000000,4.000000,4.000000,4.000000,4.000000,4.000000,4.000000,4.000000,4.000000,4.000000,4.000000,4.000000,4.000000,4.000000,4.000000,100.000000,,,,,,,,,,,,,,,,,14.000000,0.000000,0.385258,-0.548645,-0.351990,-0.653198,0.991210,0.028446,0.151630,-34.524364,-29.956791,23.272375,,,,,,,,,,,,,,,,,,,,,,,,,,,,,,,,,,,,,,,,,,,,,,,,,,,,,,,,,,,,,,,,,,,,,,,,,,,,,,,,,,,,,,,,,,,,,,,,,,,,,,,,,,,,,,,,,,,
1717571943.728564,57.000000,1.000000,4318.717773,4329.654785,4310.118164,4323.915039,4309.210938,4313.836426,4318.964355,4322.169434,4302.248535,4300.582031,4393.096680,4438.195313,4326.578125,4362.288086,1796.615356,0.000000,4.000000,,,,0.000000,4.000000,4.000000,4.000000,4.000000,4.000000,4.000000,4.000000,4.000000,4.000000,4.000000,4.000000,4.000000,4.000000,4.000000,100.000000,,,,,,,,,,,,,,,,,,,,,,,,,,,,,,,,,,,,,,,,,,,,,,,,,,,,,,,,,,,,,,,,,,,,,,,,,,,,,,,,,,,,,,,,,,,,,,,,,,,,,,,,,,,,,,,,,,,,,,,,,,,,,,,,,,,,,,,,,,,,,,,
1717571943.736372,58.000000,1.000000,4318.782227,4329.339355,4310.133301,4324.067871,4309.368652,4314.363770,4319.620117,4322.825684,4302.593750,4300.991211,4393.580078,4438.402344,4327.095703,4362.573730,2021.192261,0.000000,4.000000,,,,0.000000,4.000000,4.000000,4.000000,4.000000,4.000000,4.000000,4.000000,4.000000,4.000000,4.000000,4.000000,4.000000,4.000000,4.000000,100.000000,,,,,,,,,,,,,,,,,,,,,,,,,,,,,,,,,,,,,,,,,,,,,,,,,,,,,,,,,,,,,,,,,,,,,,,,,,,,,,,,,,,,,,,,,,,,,,,,,,,,,,,,,,,,,,,,,,,,,,,,,,,,,,,,,,,,,,,,,,,,,,,
1717571943.744180,59.000000,1.000000,4318.846191,4329.023438,4310.147949,4324.220703,4309.526855,4314.891602,4320.276367,4323.481445,4302.938965,4301.400391,4394.062988,4438.609375,4327.613281,4362.859863,2245.769287,0.000000,4.000000,,,,0.000000,4.000000,4.000000,4.000000,4.000000,4.000000,4.000000,4.000000,4.000000,4.000000,4.000000,4.000000,4.000000,4.000000,4.000000,100.000000,,,,,,,,,,,,,,,,,,,,,,,,,,,,,,,,,,,,,,,,,,,,,,,,,,,,,,,,,,,,,,,,,,,,0.000000,0.000000,1.000000,0.000000,128.000000,0.128374,,,,,,,,,,,,,,,,,,,,,,,,,,,,,,,,,,,,,,,,,,,,,,,,,,,,,,,,,,,,,,,,,,,,,,
1717571943.751988,60.000000,1.000000,4318.910156,4328.708008,4310.162598,4324.373535,4309.684570,4315.418945,4320.932129,4324.137207,4303.284180,4301.809570,4394.546387,4438.816406,4328.131348,4363.145996,2470.346191,0.000000,4.000000,,,,0.000000,4.000000,4.000000,4.000000,4.000000,4.000000,4.000000,4.000000,4.000000,4.000000,4.000000,4.000000,4.000000,4.000000,4.000000,100.000000,,,,,,,,,,,,,,,,,15.000000,1.000000,0.385236,-0.548564,-0.351990,-0.653280,0.989419,0.032678,0.152281,-34.575001,-29.965509,23.285231,,,,,,,,,,,,,,,,,,,,,,,,,,,,,,,,,,,,,,,,,,,,,,,,,,,,,,,,,,,,,,,,,,,,,,,,,,,,,,,,,,,,,,,,,,,,,,,,,,,,,,,,,,,,,,,,,,,
1717571943.759796,61.000000,1.000000,4318.974121,4328.392578,4310.177734,4324.526855,4309.842285,4315.946777,4321.587891,4324.792969,4303.629395,4302.218750,4395.029785,4439.023438,4328.648926,4363.432129,2694.923096,0.000000,4.000000,,,,0.000000,4.000000,4.000000,4.000000,4.000000,4.000000,4.000000,4.000000,4.000000,4.000000,4.000000,4.000000,4.000000,4.000000,4.000000,100.000000,,,,,,,,,,,,,,,,,,,,,,,,,,,,,,,,,,,,,,,,,,,,,,,,,,,,,,,,,,,,,,,,,,,,,,,,,,,,,,,,,,,,,,,,,,,,,,,,,,,,,,,,,,,,,,,,,,,,,,,,,,,,,,,,,,,,,,,,,,,,,,,
1717571943.767604,62.000000,1.000000,4319.038574,4328.077148,4310.192383,4324.679688,4310.000000,4316.474121,4322.243652,4325.448730,4303.974121,4302.628418,4395.512695,4439.230957,4329.166504,4363.717773,2919.500000,0.000000,4.000000,,,,0.000000,4.000000,4.000000,4.000000,4.000000,4.000000,4.000000,4.000000,4.000000,4.000000,4.000000,4.000000,4.000000,4.000000,4.000000,100.000000,,,,,,,,,,,,,,,,,,,,,,,,,,,,,,,,,,,,,,,,,,,,,,,,,,,,,,,,,,,,,,,,,,,,,,,,,,,,,,,,,,,,,,,,,,,,,,,,,,,,,,,,,,,,,,,,,,,,,,,,,,,,,,,,,,,,,,,,,,,,,,,
1717571943.775412,63.000000,1.000000,4319.102539,4327.761230,4310.207031,4324.832520,4310.157715,4317.001953,4322.899414,4326.104492,4304.319336,4303.037598,4395.996094,4439.437988,4329.684570,4364.003906,3144.076904,0.000000,4.000000,,,,0.000000,4.000000,4.000000,4.000000,4.000000,4.000000,4.000000,4.000000,4.000000,4.000000,4.000000,4.000000,4.000000,4.000000,4.000000,100.000000,,,,,,,,,,,,,,,,,,,,,,,,,,,,,,,,,,,,,,,,,,,,,,,,,,,,,,,,,,,,,,,,,,,,0.000000,0.000000,1.000000,0.000000,128.000000,0.128374,,,,,,,,,,,,,,,,,,,,,,,,,,,,,,,,,,,,,,,,,,,,,,,,,,,,,,,,,,,,,,,,,,,,,,
1717571943.783220,64.000000,1.000000,4319.166504,4327.445801,4310.221680,4324.985352,4310.315430,4317.529785,4323.555176,4326.760254,4304.664551,4303.446777,4396.479492,4439.645020,4330.202148,4364.290039,3969.000000,0.000000,4.000000,,,,0.000000,4.000000,4.000000,4.000000,4.000000,4.000000,4.000000,4.000000,4.000000,4.000000,4.000000,4.000000,4.000000,4.000000,4.000000,100.000000,,,,,,,,,,,,,,,,,16.000000,1.000000,0.385214,-0.548482,-0.351990,-0.653361,0.987629,0.036910,0.152932,-34.625633,-29.974230,23.298084,,,,,,,,,,,,,,,,,,,,,,,,,,,,,,,,,,,,,,,,,,,,,,,,,,,,,,,,,,,,,,,,,,,,,,,,,,,,,,,,,,,,,,,,,,,,,,,,,,,,,,,,,,,,,,,,,,,
1717571943.791028,65.000000,1.000000,4319.230957,4327.130371,4310.236816,4325.138184,4310.473145,4318.057129,4324.210938,4327.416016,4305.009766,4303.855957,4396.962402,4439.852051,4330.719727,4364.576172,5514.000000,0.000000,4.000000,,,,0.000000,4.000000,4.000000,4.000000,4.000000,4.000000,4.000000,4.000000,4.000000,4.000000,4.000000,4.000000,4.000000,4.000000,4.000000,100.000000,,,,,,,,,,,,,,,,,,,,,,,,,,,,,,,,,,,,,,,,,,,,,,,,,,,,,,,,,,,,,,,,,,,,,,,,,,,,,,,,,,,,,,,,,,,,,,,,,,,,,,,,,,,,,,,,,,,,,,,,,,,,,,,,,,,,,,,,,,,,,,,
1717571943.798836,66.000000,1.000000,4319.294922,4326.814453,4310.251465,4325.291016,4310.631348,4318.584961,4324.866699,4328.071777,4305.354980,4304.265137,4397.445801,4440.059082,4331.237793,4364.861816,3862.000000,0.000000,4.000000,,,,0.000000,4.000000,4.000000,4.000000,4.000000,4.000000,4.000000,4.000000,4.000000,4.000000,4.000000,4.000000,4.000000,4.000000,4.000000,100.000000,,,,,,,,,,,,,,,,,,,,,,,,,,,,,,,,,,,,,,,,,,,,,,,,,,,,,,,,,,,,,,,,,,,,,,,,,,,,,,,,,,,,,,,,,,,,,,,,,,,,,,,,,,,,,,,,,,,,,,,,,,,,,,,,,,,,,,,,,,,,,,,
1717571943.806644,67.000000,1.000000,4319.358887,4326.499023,4310.266113,4325.443848,4310.789063,4319.112305,4325.522461,4328.728027,4305.700195,4304.674316,4397.929199,4440.266113,4331.755371,4365.147949,3637.000000,0.000000,4.000000,,,,0.000000,4.000000,4.000000,4.000000,4.000000,4.000000,4.000000,4.000000,4.000000,4.000000,4.000000,4.000000,4.000000,4.000000,4.000000,100.000000,,,,,,,,,,,,,,,,,,,,,,,,,,,,,1.000000,0.000000,0.000000,,,,,,,,,,,,,,,,,,,,,,,,,,,,,,,,,,,,,0.000000,0.000000,1.000000,0.000000,128.000000,0.388774,1.434130,0.170000,0.054857,0.070278,0.013721,0.980714,0.339765,0.094090,0.046694,0.029021,1.152680,0.146477,0.030204,0.038894,0.013459,3.302907,0.508692,0.182450,0.225389,0.026654,0.554017,0.093159,0.054758,0.038202,0.008395,0.736836,0.071193,0.052691,0.032587,0.009544,0.417423,0.075840,0.051335,0.034981,0.012622,0.647125,0.141624,0.108037,0.046441,0.015751,1.298140,0.231334,0.155968,0.066382,0.022251,0.695774,0.226227,0.162778,0.044757,0.026440,2.827401,0.500177,0.166088,0.073214,0.030659,3.338327,0.363002,0.146659,0.134667,0.027452,1.981971,0.230115,0.125520,0.076086,0.035453,2.857002,0.315514,0.127443,0.096953,0.022205
1717571943.814452,68.000000,1.000000,4319.422852,4326.183594,4310.281250,4325.596680,4310.946777,4319.640137,4326.178711,4329.383789,4306.045410,4305.083984,4398.412109,4440.473145,4332.272949,4365.434082,5193.000000,0.000000,4.000000,,,,0.000000,4.000000,4.000000,4.000000,4.000000,4.000000,4.000000,4.000000,4.000000,4.000000,4.000000,4.000000,4.000000,4.000000,4.000000,100.000000,,,,,,,,,,,,,,,,,17.000000,0.000000,0.385192,-0.548401,-0.351990,-0.653442,0.985838,0.041143,0.153583,-34.676270,-29.982950,23.310940,,,,,,,,,,,,,,,,,,,,,,,,,,,,,,,,,,,,,,,,,,,,,,,,,,,,,,,,,,,,,,,,,,,,,,,,,,,,,,,,,,,,,,,,,,,,,,,,,,,,,,,,,,,,,,,,,,,
1717571943.822260,69.000000,1.000000,4319.487305,4325.867676,4310.295898,4325.749512,4311.104492,4320.167480,4326.834473,4330.039551,4306.390625,4305.493164,4398.895508,4440.680664,4332.791016,4365.719727,5395.000000,0.000000,4.000000,,,,0.000000,4.000000,4.000000,4.000000,4.000000,4.000000,4.000000,4.000000,4.000000,4.000000,4.000000,4.000000,4.000000,4.000000,4.000000,100.000000,,,,,,,,,,,,,,,,,,,,,,,,,,,,,,,,,,,,,,,,,,,,,,,,,,,,,,,,,,,,,,,,,,,,,,,,,,,,,,,,,,,,,,,,,,,,,,,,,,,,,,,,,,,,,,,,,,,,,,,,,,,,,,,,,,,,,,,,,,,,,,,
1717571943.830068,70.000000,1.000000,4319.551270,4325.552246,4310.310547,4325.902344,4311.262207,4320.695313,4327.490234,4330.695313,4306.735840,4305.902344,4399.378906,4440.887695,4333.308594,4366.005859,5193.000000,0.000000,4.000000,,,,0.000000,4.000000,4.000000,4.000000,4.000000,4.000000,4.000000,4.000000,4.000000,4.000000,4.000000,4.000000,4.000000,4.000000,4.000000,100.000000,,,,,,,,,,,,,,,,,,,,,,,,,,,,,,,,,,,,,,,,,,,,,,,,,,,,,,,,,,,,,,,,,,,,,,,,,,,,,,,,,,,,,,,,,,,,,,,,,,,,,,,,,,,,,,,,,,,,,,,,,,,,,,,,,,,,,,,,,,,,,,,
1717571943.837876,71.000000,1.000000,4319.615234,4325.236816,4310.325684,4326.055176,4311.419922,4321.222656,4328.145996,4331.351074,4307.081055,4306.311523,4399.861816,4441.094727,4333.826660,4366.291992,4699.000000,0.000000,4.000000,,,,0.000000,4.000000,4.000000,4.000000,4.000000,4.000000,4.000000,4.000000,4.000000,4.000000,4.000000,4.000000,4.000000,4.000000,4.000000,100.000000,,,,,,,,,,,,,,,,,,,,,,,,,,,,,,,,,,,,,,,,,,,,,,,,,,,,,,,,,,,,,,,,,,,,0.000000,0.000000,1.000000,0.000000,128.000000,0.388774,,,,,,,,,,,,,,,,,,,,,,,,,,,,,,,,,,,,,,,,,,,,,,,,,,,,,,,,,,,,,,,,,,,,,,
1717571943.845684,72.000000,1.000000,4319.679688,4324.920898,4310.340332,4326.208008,4311.578125,4321.750488,4328.801758,4332.006836,4307.426270,4306.720703,4400.345215,4441.301758,4334.344238,4366.578125,5173.000000,0.000000,4.000000,,,,0.000000,4.000000,4.000000,4.000000,4.000000,4.000000,4.000000,4.000000,4.000000,4.000000,4.000000,4.000000,4.000000,4.000000,4.000000,100.000000,,,,,,,,,,,,,,,,,18.000000,0.000000,0.385326,-0.548340,-0.352051,-0.653381,0.988280,0.028446,0.159443,-34.757668,-30.183237,23.254341,,,,,,,,,,,,,,,,,,,,,,,,,,,,,,,,,,,,,,,,,,,,,,,,,,,,,,,,,,,,,,,,,,,,,,,,,,,,,,,,,,,,,,,,,,,,,,,,,,,,,,,,,,,,,,,,,,,
1717571943.853492,73.000000,1.000000,4319.743652,4324.605469,4310.354980,4326.360840,4311.735840,4322.278320,4329.457520,4332.662598,4307.770996,4307.130371,4400.828613,4441.508789,4334.861816,4366.863770,4802.000000,0.000000,4.000000,,,,0.000000,4.000000,4.000000,4.000000,4.000000,4.000000,4.000000,4.000000,4.000000,4.000000,4.000000,4.000000,4.000000,4.000000,4.000000,100.000000,,,,,,,,,,,,,,,,,,,,,,,,,,,,,,,,,,,,,,,,,,,,,,,,,,,,,,,,,,,,,,,,,,,,,,,,,,,,,,,,,,,,,,,,,,,,,,,,,,,,,,,,,,,,,,,,,,,,,,,,,,,,,,,,,,,,,,,,,,,,,,,
1717571943.861300,74.000000,1.000000,4319.807617,4324.290039,4310.369629,4326.513672,4311.893555,4322.805664,4330.113281,4333.318359,4308.116211,4307.539551,4401.311523,4441.715820,4335.379883,4367.149902,6040.000000,0.000000,4.000000,,,,0.000000,4.000000,4.000000,4.000000,4.000000,4.000000,4.000000,4.000000,4.000000,4.000000,4.000000,4.000000,4.000000,4.000000,4.000000,100.000000,,,,,,,,,,,,,,,,,,,,,,,,,,,,,,,,,,,,,,,,,,,,,,,,,,,,,,,,,,,,,,,,,,,,,,,,,,,,,,,,,,,,,,,,,,,,,,,,,,,,,,,,,,,,,,,,,,,,,,,,,,,,,,,,,,,,,,,,,,,,,,,
1717571943.869108,75.000000,0.000000,4319.871582,4323.974121,4310.384766,4326.666504,4312.051270,4323.333496,4330.769043,4333.974121,4308.461426,4307.948730,4401.794922,4441.922852,4335.897461,4367.436035,5839.000000,0.000000,4.000000,,,,0.000000,4.000000,4.000000,4.000000,4.000000,4.000000,4.000000,4.000000,4.000000,4.000000,4.000000,4.000000,4.000000,4.000000,4.000000,100.000000,,,,,,,,,,,,,,,,,,,,,,,,,,,,,,,,,,,,,,,,,,,,,,,,,,,,,,,,,,,,,,,,,,,,0.000000,0.000000,1.000000,0.000000,128.000000,0.388774,,,,,,,,,,,,,,,,,,,,,,,,,,,,,,,,,,,,,,,,,,,,,,,,,,,,,,,,,,,,,,,,,,,,,,
1717571943.876816,76.000000,1.000000,4323.055664,4326.922852,4313.354492,4330.534180,4314.871582,4327.670898,4334.017090,4336.367676,4312.457031,4312.628418,4406.730957,4447.029785,4343.055664,4371.944336,6725.000000,0.000000,4.000000,,,,0.000000,4.000000,4.000000,4.000000,4.000000,4.000000,4.000000,4.000000,4.000000,4.000000,4.000000,4.000000,4.000000,4.000000,4.000000,100.000000,,,,,,,,,,,,,,,,,19.000000,1.000000,0.385338,-0.548340,-0.352066,-0.653366,0.985106,0.031376,0.157856,-34.722057,-30.211990,23.285482,,,,,,,,,,,,,,,,,,,,,,,,,,,,,,,,,,,,,,,,,,,,,,,,,,,,,,,,,,,,,,,,,,,,,,,,,,,,,,,,,,,,,,,,,,,,,,,,,,,,,,,,,,,,,,,,,,,
1717571943.884624,77.000000,1.000000,4326.239258,4329.871582,4316.324707,4334.401855,4317.692383,4332.008789,4337.265137,4338.760742,4316.453125,4317.307617,4411.666504,4452.136719,4350.213867,4376.453125,6770.000000,0.000000,4.000000,,,,0.000000,4.000000,4.000000,4.000000,4.000000,4.000000,4.000000,4.000000,4.000000,4.000000,4.000000,4.000000,4.000000,4.000000,4.000000,100.000000,,,,,,,,,,,,,,,,,,,,,,,,,,,,,,,,,,,,,,,,,,,,,,,,,,,,,,,,,,,,,,,,,,,,,,,,,,,,,,,,,,,,,,,,,,,,,,,,,,,,,,,,,,,,,,,,,,,,,,,,,,,,,,,,,,,,,,,,,,,,,,,
1717571943.892432,78.000000,1.000000,4329.422852,4332.820313,4319.294922,4338.269043,4320.512695,4336.346191,4340.512695,4341.153809,4320.448730,4321.987305,4416.602539,4457.243652,4357.371582,4380.961426,6040.000000,0.000000,4.000000,,,,0.000000,4.000000,4.000000,4.000000,4.000000,4.000000,4.000000,4.000000,4.000000,4.000000,4.000000,4.000000,4.000000,4.000000,4.000000,100.000000,,,,,,,,,,,,,,,,,,,,,,,,,,,,,,,,,,,,,,,,,,,,,,,,,,,,,,,,,,,,,,,,,,,,,,,,,,,,,,,,,,,,,,,,,,,,,,,,,,,,,,,,,,,,,,,,,,,,,,,,,,,,,,,,,,,,,,,,,,,,,,,
1717571943.900240,79.000000,1.000000,4332.606934,4335.769043,4322.265137,4342.136719,4323.333496,4340.683594,4343.760742,4343.546875,4324.444336,4326.666504,4421.538574,4462.350586,4364.529785,4385.470215,5833.000000,0.000000,4.000000,,,,0.000000,4.000000,4.000000,4.000000,4.000000,4.000000,4.000000,4.000000,4.000000,4.000000,4.000000,4.000000,4.000000,4.000000,4.000000,100.000000,,,,,,,,,,,,,,,,,,,,,,,,,,,,,,,,,,,,,,,,,,,,,,,,,,,,,,,,,,,,,,,,,,,,0.000000,0.000000,1.000000,0.000000,128.000000,0.388774,,,,,,,,,,,,,,,,,,,,,,,,,,,,,,,,,,,,,,,,,,,,,,,,,,,,,,,,,,,,,,,,,,,,,,
1717571943.908048,80.000000,1.000000,4335.790527,4338.717773,4325.234863,4346.004395,4326.153809,4345.021484,4347.008789,4345.939941,4328.439941,4331.346191,4426.474121,4467.457031,4371.687988,4389.978516,6609.000000,0.000000,4.000000,,,,0.000000,4.000000,4.000000,4.000000,4.000000,4.000000,4.000000,4.000000,4.000000,4.000000,4.000000,4.000000,4.000000,4.000000,4.000000,100.000000,,,,,,,,,,,,,,,,,20.000000,1.000000,0.385350,-0.548340,-0.352081,-0.653351,0.981931,0.034306,0.156269,-34.686451,-30.240742,23.316624,,,,,,,,,,,,,,,,,,,,,,,,,,,,,,,,,,,,,,,,,,,,,,,,,,,,,,,,,,,,,,,,,,,,,,,,,,,,,,,,,,,,,,,,,,,,,,,,,,,,,,,,,,,,,,,,,,,
1717571943.915856,81.000000,0.000000,4338.974121,4341.666504,4328.205078,4349.871582,4328.974121,4349.358887,4350.256348,4348.333496,4332.436035,4336.025879,4431.410156,4472.563965,4378.846191,4394.487305,6763.000000,0.000000,4.000000,,,,0.000000,4.000000,4.000000,4.000000,4.000000,4.000000,4.000000,4.000000,4.000000,4.000000,4.000000,4.000000,4.000000,4.000000,4.000000,100.000000,,,,,,,,,,,,,,,,,,,,,,,,,,,,,,,,,,,,,,,,,,,,,,,,,,,,,,,,,,,,,,,,,,,,,,,,,,,,,,,,,,,,,,,,,,,,,,,,,,,,,,,,,,,,,,,,,,,,,,,,,,,,,,,,,,,,,,,,,,,,,,,
1717571943.923764,82.000000,1.000000,4339.172363,4342.196777,4328.274902,4350.069824,4328.974121,4348.968750,4350.052246,4348.175781,4332.313477,4335.926758,4432.156250,4473.292480,4379.772949,4395.145508,6721.000000,0.000000,4.000000,,,,0.000000,4.000000,4.000000,4.000000,4.000000,4.000000,4.000000,4.000000,4.000000,4.000000,4.000000,4.000000,4.000000,4.000000,4.000000,100.000000,,,,,,,,,,,,,,,,,,,,,,,,,,,,,,,,,,,,,,,,,,,,,,,,,,,,,,,,,,,,,,,,,,,,,,,,,,,,,,,,,,,,,,,,,,,,,,,,,,,,,,,,,,,,,,,,,,,,,,,,,,,,,,,,,,,,,,,,,,,,,,,
1717571943.931572,83.000000,1.000000,4339.370605,4342.727051,4328.345215,4350.268066,4328.974121,4348.578125,4349.848633,4348.018555,4332.190918,4335.827637,4432.901855,4474.020996,4380.699219,4395.804199,6679.000000,0.000000,4.000000,,,,0.000000,4.000000,4.000000,4.000000,4.000000,4.000000,4.000000,4.000000,4.000000,4.000000,4.000000,4.000000,4.000000,4.000000,4.000000,100.000000,,,,,,,,,,,,,,,,,,,,,,,,,,,,,1.000000,0.000000,0.000000,,,,,,,,,,,,,,,,,,,,,,,,,,,,,,,,,,,,,0.000000,0.000000,1.000000,0.000000,512.000000,1.000000,1.711559,0.198697,0.049893,0.047566,0.009797,1.341266,0.290201,0.062986,0.035393,0.018260,1.317222,0.152987,0.030376,0.028855,0.009829,2.738456,0.387012,0.113046,0.133737,0.015728,0.516497,0.061917,0.030419,0.023774,0.004852,0.630978,0.048634,0.030620,0.022226,0.006768,0.406902,0.053779,0.033775,0.023117,0.008440,0.541065,0.102757,0.076936,0.031264,0.010664,1.138193,0.175076,0.115833,0.044145,0.014216,0.629648,0.152631,0.109904,0.030135,0.016645,2.796061,0.431408,0.172301,0.064903,0.024614,3.794643,0.380162,0.130521,0.093202,0.020275,2.219500,0.221574,0.093758,0.051259,0.021988,3.446277,0.342976,0.103859,0.066820,0.014770
1717571943.939380,84.000000,1.000000,4339.568848,4343.257813,4328.415039,4350.466309,4328.974121,4348.187500,4349.644531,4347.861328,4332.068848,4335.728516,4433.647949,4474.749512,4381.625977,4396.462891,6637.000000,0.000000,4.000000,,,,0.000000,4.000000,4.000000,4.000000,4.000000,4.000000,4.000000,4.000000,4.000000,4.000000,4.000000,4.000000,4.000000,4.000000,4.000000,100.000000,,,,,,,,,,,,,,,,,21.000000,1.000000,0.385362,-0.548340,-0.352097,-0.653336,0.978757,0.037236,0.154682,-34.650841,-30.269495,23.347765,,,,,,,,,,,,,,,,,,,,,,,,,,,,,,,,,,,,,,,,,,,,,,,,,,,,,,,,,,,,,,,,,,,,,,,,,,,,,,,,,,,,,,,,,,,,,,,,,,,,,,,,,,,,,,,,,,,
1717571943.947187,85.000000,1.000000,4339.767090,4343.788086,4328.484863,4350.664551,4328.974121,4347.797363,4349.440430,4347.704102,4331.946289,4335.629395,4434.394043,4475.478027,4382.552246,4397.121094,6595.000000,0.000000,4.000000,,,,0.000000,4.000000,4.000000,4.000000,4.000000,4.000000,4.000000,4.000000,4.000000,4.000000,4.000000,4.000000,4.000000,4.000000,4.000000,100.000000,,,,,,,,,,,,,,,,,,,,,,,,,,,,,,,,,,,,,,,,,,,,,,,,,,,,,,,,,,,,,,,,,,,,,,,,,,,,,,,,,,,,,,,,,,,,,,,,,,,,,,,,,,,,,,,,,,,,,,,,,,,,,,,,,,,,,,,,,,,,,,,
1717571943.954995,86.000000,1.000000,4339.964844,4344.318359,4328.554688,4350.862305,4328.974121,4347.406738,4349.236816,4347.546387,4331.824219,4335.530273,4435.139648,4476.206055,4383.479004,4397.779785,6553.000000,0.000000,4.000000,,,,0.000000,4.000000,4.000000,4.000000,4.000000,4.000000,4.000000,4.000000,4.000000,4.000000,4.000000,4.000000,4.000000,4.000000,4.000000,100.000000,,,,,,,,,,,,,,,,,,,,,,,,,,,,,,,,,,,,,,,,,,,,,,,,,,,,,,,,,,,,,,,,,,,,,,,,,,,,,,,,,,,,,,,,,,,,,,,,,,,,,,,,,,,,,,,,,,,,,,,,,,,,,,,,,,,,,,,,,,,,,,,
1717571943.962803,87.000000,1.000000,4340.163086,4344.848633,4328.624512,4351.060547,4328.974121,4347.016113,4349.032715,4347.389160,4331.701660,4335.431152,4435.885742,4476.934570,4384.405762,4398.437988,6511.000000,0.000000,4.000000,,,,0.000000,4.000000,4.000000,4.000000,4.000000,4.000000,4.000000,4.000000,4.000000,4.000000,4.000000,4.000000,4.000000,4.000000,4.000000,100.000000,,,,,,,,,,,,,,,,,,,,,,,,,,,,,,,,,,,,,,,,,,,,,,,,,,,,,,,,,,,,,,,,,,,,0.000000,0.000000,1.000000,0.000000,512.000000,1.000000,,,,,,,,,,,,,,,,,,,,,,,,,,,,,,,,,,,,,,,,,,,,,,,,,,,,,,,,,,,,,,,,,,,,,,
1717571943.970611,88.000000,1.000000,4340.361328,4345.378906,4328.694824,4351.258789,4328.974121,4346.625977,4348.828613,4347.231934,4331.579102,4335.332031,4436.631836,4477.663086,4385.332031,4399.096680,6469.000000,0.000000,4.000000,,,,0.000000,4.000000,4.000000,4.000000,4.000000,4.000000,4.000000,4.000000,4.000000,4.000000,4.000000,4.000000,4.000000,4.000000,4.000000,100.000000,,,,,,,,,,,,,,,,,22.000000,0.000000,0.385374,-0.548340,-0.352112,-0.653320,0.975583,0.040166,0.153095,-34.615234,-30.298246,23.378906,,,,,,,,,,,,,,,,,,,,,,,,,,,,,,,,,,,,,,,,,,,,,,,,,,,,,,,,,,,,,,,,,,,,,,,,,,,,,,,,,,,,,,,,,,,,,,,,,,,,,,,,,,,,,,,,,,,
1717571943.978419,89.000000,1.000000,4340.559570,4345.909180,4328.764648,4351.457031,4328.974121,4346.235352,4348.624512,4347.074707,4331.457031,4335.232910,4437.377441,4478.391602,4386.258789,4399.755371,6427.000000,0.000000,4.000000,,,,0.000000,4.000000,4.000000,4.000000,4.000000,4.000000,4.000000,4.000000,4.000000,4.000000,4.000000,4.000000,4.000000,4.000000,4.000000,100.000000,,,,,,,,,,,,,,,,,,,,,,,,,,,,,,,,,,,,,,,,,,,,,,,,,,,,,,,,,,,,,,,,,,,,,,,,,,,,,,,,,,,,,,,,,,,,,,,,,,,,,,,,,,,,,,,,,,,,,,,,,,,,,,,,,,,,,,,,,,,,,,,
1717571943.986227,90.000000,1.000000,4340.757813,4346.439453,4328.834473,4351.654785,4328.974121,4345.845215,4348.420898,4346.917480,4331.334473,4335.133789,4438.123535,4479.120117,4387.185547,4400.413574,6385.000000,0.000000,4.000000,,,,0.000000,4.000000,4.000000,4.000000,4.000000,4.000000,4.000000,4.000000,4.000000,4.000000,4.000000,4.000000,4.000000,4.000000,4.000000,100.000000,,,,,,,,,,,,,,,,,,,,,,,,,,,,,,,,,,,,,,,,,,,,,,,,,,,,,,,,,,,,,,,,,,,,,,,,,,,,,,,,,,,,,,,,,,,,,,,,,,,,,,,,,,,,,,,,,,,,,,,,,,,,,,,,,,,,,,,,,,,,,,,
1717571943.994035,91.000000,1.000000,4340.955566,4346.969727,4328.904297,4351.853027,4328.974121,4345.454590,4348.216797,4346.759766,4331.211914,4335.035156,4438.869629,4479.848633,4388.111816,4401.072266,6343.000000,0.000000,4.000000,,,,0.000000,4.000000,4.000000,4.000000,4.000000,4.000000,4.000000,4.000000,4.000000,4.000000,4.000000,4.000000,4.000000,4.000000,4.000000,100.000000,,,,,,,,,,,,,,,,,,,,,,,,,,,,,,,,,,,,,,,,,,,,,,,,,,,,,,,,,,,,,,,,,,,,0.000000,0.000000,1.000000,0.000000,512.000000,1.000000,,,,,,,,,,,,,,,,,,,,,,,,,,,,,,,,,,,,,,,,,,,,,,,,,,,,,,,,,,,,,,,,,,,,,,
1717571944.001843,92.000000,1.000000,4341.153809,4347.500000,4328.974121,4352.051270,4328.974121,4345.063965,4348.012695,4346.602539,4331.089844,4334.936035,4439.615234,4480.577148,4389.038574,4401.730957,6301.000000,0.000000,4.000000,,,,0.000000,4.000000,4.000000,4.000000,4.000000,4.000000,4.000000,4.000000,4.000000,4.000000,4.000000,4.000000,4.000000,4.000000,4.000000,100.000000,,,,,,,,,,,,,,,,,23.000000,0.000000,0.385486,-0.548340,-0.351990,-0.653320,0.983396,0.029911,0.154072,-34.138256,-30.569246,23.852039,,,,,,,,,,,,,,,,,,,,,,,,,,,,,,,,,,,,,,,,,,,,,,,,,,,,,,,,,,,,,,,,,,,,,,,,,,,,,,,,,,,,,,,,,,,,,,,,,,,,,,,,,,,,,,,,,,,
1717571944.009651,93.000000,1.000000,4341.352051,4348.030273,4329.044434,4352.249512,4328.974121,4344.673828,4347.809082,4346.445313,4330.967285,4334.836914,4440.361328,4481.305176,4389.964844,4402.389160,6259.000000,0.000000,4.000000,,,,0.000000,4.000000,4.000000,4.000000,4.000000,4.000000,4.000000,4.000000,4.000000,4.000000,4.000000,4.000000,4.000000,4.000000,4.000000,100.000000,,,,,,,,,,,,,,,,,,,,,,,,,,,,,,,,,,,,,,,,,,,,,,,,,,,,,,,,,,,,,,,,,,,,,,,,,,,,,,,,,,,,,,,,,,,,,,,,,,,,,,,,,,,,,,,,,,,,,,,,,,,,,,,,,,,,,,,,,,,,,,,
1717571944.017459,94.000000,1.000000,4341.550293,4348.560547,4329.114258,4352.447754,4328.974121,4344.283203,4347.604980,4346.288086,4330.845215,4334.737793,4441.107422,4482.033691,4390.891602,4403.047852,6217.000000,0.000000,4.000000,,,,0.000000,4.000000,4.000000,4.000000,4.000000,4.000000,4.000000,4.000000,4.000000,4.000000,4.000000,4.000000,4.000000,4.000000,4.000000,100.000000,,,,,,,,,,,,,,,,,,,,,,,,,,,,,,,,,,,,,,,,,,,,,,,,,,,,,,,,,,,,,,,,,,,,,,,,,,,,,,,,,,,,,,,,,,,,,,,,,,,,,,,,,,,,,,,,,,,,,,,,,,,,,,,,,,,,,,,,,,,,,,,
1717571944.025267,95.000000,1.000000,4341.748047,4349.090820,4329.184082,4352.645508,4328.974121,4343.892578,4347.400879,4346.130371,4330.722656,4334.638672,4441.853027,4482.762207,4391.818359,4403.706055,6175.000000,0.000000,4.000000,,,,0.000000,4.000000,4.000000,4.000000,4.000000,4.000000,4.000000,4.000000,4.000000,4.000000,4.000000,4.000000,4.000000,4.000000,4.000000,100.000000,,,,,,,,,,,,,,,,,,,,,,,,,,,,,,,,,,,,,,,,,,,,,,,,,,,,,,,,,,,,,,,,,,,,0.000000,0.000000,1.000000,0.000000,512.000000,1.000000,,,,,,,,,,,,,,,,,,,,,,,,,,,,,,,,,,,,,,,,,,,,,,,,,,,,,,,,,,,,,,,,,,,,,,
1717571944.033075,96.000000,1.000000,4341.946289,4349.621094,4329.253906,4352.843750,4328.974121,4343.502441,4347.196777,4345.973145,4330.600098,4334.539551,4442.599121,4483.490723,4392.744629,4404.364746,6133.000000,0.000000,4.000000,,,,0.000000,4.000000,4.000000,4.000000,4.000000,4.000000,4.000000,4.000000,4.000000,4.000000,4.000000,4.000000,4.000000,4.000000,4.000000,100.000000,,,,,,,,,,,,,,,,,24.000000,0.000000,0.385533,-0.548340,-0.352051,-0.653259,0.987791,0.026981,0.146258,-34.253075,-30.559082,23.862089,,,,,,,,,,,,,,,,,,,,,,,,,,,,,,,,,,,,,,,,,,,,,,,,,,,,,,,,,,,,,,,,,,,,,,,,,,,,,,,,,,,,,,,,,,,,,,,,,,,,,,,,,,,,,,,,,,,
1717571944.040883,97.000000,1.000000,4342.144531,4350.151367,4329.324219,4353.041992,4328.974121,4343.111816,4346.993164,4345.815918,4330.478027,4334.440430,4443.345215,4484.219238,4393.671387,4405.023438,6091.000000,0.000000,4.000000,,,,0.000000,4.000000,4.000000,4.000000,4.000000,4.000000,4.000000,4.000000,4.000000,4.000000,4.000000,4.000000,4.000000,4.000000,4.000000,100.000000,,,,,,,,,,,,,,,,,,,,,,,,,,,,,,,,,,,,,,,,,,,,,,,,,,,,,,,,,,,,,,,,,,,,,,,,,,,,,,,,,,,,,,,,,,,,,,,,,,,,,,,,,,,,,,,,,,,,,,,,,,,,,,,,,,,,,,,,,,,,,,,
1717571944.048691,98.000000,1.000000,4342.342773,4350.681641,4329.394043,4353.240234,4328.974121,4342.721680,4346.789063,4345.658691,4330.355469,4334.341309,4444.090820,4484.947754,4394.598145,4405.681641,6049.000000,0.000000,4.000000,,,,0.000000,4.000000,4.000000,4.000000,4.000000,4.000000,4.000000,4.000000,4.000000,4.000000,4.000000,4.000000,4.000000,4.000000,4.000000,100.000000,,,,,,,,,,,,,,,,,,,,,,,,,,,,,,,,,,,,,,,,,,,,,,,,,,,,,,,,,,,,,,,,,,,,,,,,,,,,,,,,,,,,,,,,,,,,,,,,,,,,,,,,,,,,,,,,,,,,,,,,,,,,,,,,,,,,,,,,,,,,,,,
1717571944.056499,99.000000,1.000000,4342.541016,4351.211914,4329.463867,4353.437988,4328.974121,4342.331055,4346.584961,4345.500977,4330.232910,4334.242188,4444.836914,4485.675781,4395.524414,4406.340332,6007.000000,0.000000,4.000000,,,,0.000000,4.000000,4.000000,4.000000,4.000000,4.000000,4.000000,4.000000,4.000000,4.000000,4.000000,4.000000,4.000000,4.000000,4.000000,100.000000,0.156250,25.000000,4.000000,1.000000,1.000000,4.000000,1.000000,3.000000,3.000000,3.000000,4.000000,1.000000,4.000000,3.000000,3.000000,4.000000,,,,,,,,,,,,,1.000000,0.000000,0.000000,,,,,,,,,,,,,,,,,,,,,,,,,,,,,,,,,,,,,0.000000,0.000000,1.000000,0.000000,512.000000,0.361663,1.907556,0.241396,0.075590,0.037432,0.009929,1.687658,0.243449,0.043761,0.029223,0.011375,1.432049,0.165010,0.049211,0.024518,0.008778,2.405777,0.318343,0.099923,0.077426,0.012473,0.520700,0.054838,0.028337,0.015986,0.004220,0.546893,0.049251,0.029697,0.019042,0.007452,0.412678,0.051862,0.036268,0.017789,0.007560,0.451990,0.087894,0.077965,0.023812,0.009534,0.918865,0.163565,0.131547,0.032406,0.011558,0.563577,0.135867,0.117445,0.025158,0.013319,2.685840,0.420442,0.278701,0.077988,0.027785,4.015399,0.427081,0.180205,0.069667,0.020323,2.334955,0.238245,0.111886,0.038975,0.017388,3.819447,0.392866,0.134173,0.050581,0.013433
1717571944.064307,100.000000,1.000000,4342.738770,4351.742188,4329.533691,4353.636230,4328.974121,4341.940430,4346.381348,4345.343750,4330.110840,4334.143555,4445.582520,4486.404297,4396.451172,4406.999023,5965.000000,0.000000,4.000000,,,,0.000000,4.000000,4.000000,4.000000,4.000000,4.000000,4.000000,4.000000,4.000000,4.000000,4.000000,4.000000,4.000000,4.000000,4.000000,100.000000,,,,,,,,,,,,,,,,,25.000000,1.000000,0.385466,-0.548370,-0.352020,-0.653290,0.989501,0.033329,0.146502,-34.232090,-30.622795,23.893984,,,,,,,,,,,,,,,,,,,,,,,,,,,,,,,,,,,,,,,,,,,,,,,,,,,,,,,,,,,,,,,,,,,,,,,,,,,,,,,,,,,,,,,,,,,,,,,,,,,,,,,,,,,,,,,,,,,
1717571944.072115,101.000000,1.000000,4342.937012,4352.272949,4329.603516,4353.834473,4328.974121,4341.550293,4346.177246,4345.186523,4329.988281,4334.044434,4446.328613,4487.132813,4397.377441,4407.657227,5923.000000,0.000000,4.000000,,,,0.000000,4.000000,4.000000,4.000000,4.000000,4.000000,4.000000,4.000000,4.000000,4.000000,4.000000,4.000000,4.000000,4.000000,4.000000,100.000000,,,,,,,,,,,,,,,,,,,,,,,,,,,,,,,,,,,,,,,,,,,,,,,,,,,,,,,,,,,,,,,,,,,,,,,,,,,,,,,,,,,,,,,,,,,,,,,,,,,,,,,,,,,,,,,,,,,,,,,,,,,,,,,,,,,,,,,,,,,,,,,
1717571944.079923,102.000000,1.000000,4343.135254,4352.803223,4329.673828,4354.032715,4328.974121,4341.159668,4345.973145,4345.029297,4329.866211,4333.945313,4447.074707,4487.861328,4398.304199,4408.315918,5881.000000,0.000000,4.000000,,,,0.000000,4.000000,4.000000,4.000000,4.000000,4.000000,4.000000,4.000000,4.000000,4.000000,4.000000,4.000000,4.000000,4.000000,4.000000,100.000000,,,,,,,,,,,,,,,,,,,,,,,,,,,,,,,,,,,,,,,,,,,,,,,,,,,,,,,,,,,,,,,,,,,,,,,,,,,,,,,,,,,,,,,,,,,,,,,,,,,,,,,,,,,,,,,,,,,,,,,,,,,,,,,,,,,,,,,,,,,,,,,
1717571944.087731,103.000000,0.000000,4343.333496,4353.333496,4329.743652,4354.230957,4328.974121,4340.769043,4345.769043,4344.871582,4329.743652,4333.846191,4447.820313,4488.589844,4399.230957,4408.974121,5839.000000,0.000000,4.000000,,,,0.000000,4.000000,4.000000,4.000000,4.000000,4.000000,4.000000,4.000000,4.000000,4.000000,4.000000,4.000000,4.000000,4.000000,4.000000,100.000000,,,,,,,,,,,,,,,,,,,,,,,,,,,,,,,,,,,,,,,,,,,,,,,,,,,,,,,,,,,,,,,,,,,,0.000000,0.000000,1.000000,0.000000,512.000000,0.361663,,,,,,,,,,,,,,,,,,,,,,,,,,,,,,,,,,,,,,,,,,,,,,,,,,,,,,,,,,,,,,,,,,,,,,
1717571944.095439,104.000000,1.000000,4342.596191,4351.250000,4329.327148,4351.378418,4329.102539,4339.775879,4343.493652,4341.153809,4325.705078,4331.570313,4446.891113,4487.243652,4397.884766,4407.980957,5839.000000,0.000000,4.000000,,,,0.000000,4.000000,4.000000,4.000000,4.000000,4.000000,4.000000,4.000000,4.000000,4.000000,4.000000,4.000000,4.000000,4.000000,4.000000,100.000000,,,,,,,,,,,,,,,,,26.000000,0.000000,0.385399,-0.548401,-0.351990,-0.653320,0.991210,0.039678,0.146746,-34.211102,-30.686508,23.925880,,,,,,,,,,,,,,,,,,,,,,,,,,,,,,,,,,,,,,,,,,,,,,,,,,,,,,,,,,,,,,,,,,,,,,,,,,,,,,,,,,,,,,,,,,,,,,,,,,,,,,,,,,,,,,,,,,,
1717571944.103247,105.000000,1.000000,4341.858887,4349.166504,4328.910156,4348.525879,4329.230957,4338.782227,4341.217773,4337.436035,4321.666504,4329.294922,4445.961426,4485.897461,4396.538574,4406.987305,5839.000000,0.000000,4.000000,,,,0.000000,4.000000,4.000000,4.000000,4.000000,4.000000,4.000000,4.000000,4.000000,4.000000,4.000000,4.000000,4.000000,4.000000,4.000000,100.000000,,,,,,,,,,,,,,,,,,,,,,,,,,,,,,,,,,,,,,,,,,,,,,,,,,,,,,,,,,,,,,,,,,,,,,,,,,,,,,,,,,,,,,,,,,,,,,,,,,,,,,,,,,,,,,,,,,,,,,,,,,,,,,,,,,,,,,,,,,,,,,,
1717571944.111055,106.000000,1.000000,4341.121582,4347.083496,4328.493652,4345.672852,4329.358887,4337.788574,4338.942383,4333.717773,4317.628418,4327.019043,4445.032227,4484.551270,4395.192383,4405.993652,5839.000000,0.000000,4.000000,,,,0.000000,4.000000,4.000000,4.000000,4.000000,4.000000,4.000000,4.000000,4.000000,4.000000,4.000000,4.000000,4.000000,4.000000,4.000000,100.000000,,,,,,,,,,,,,,,,,,,,,,,,,,,,,,,,,,,,,,,,,,,,,,,,,,,,,,,,,,,,,,,,,,,,,,,,,,,,,,,,,,,,,,,,,,,,,,,,,,,,,,,,,,,,,,,,,,,,,,,,,,,,,,,,,,,,,,,,,,,,,,,
1717571944.118863,107.000000,0.000000,4340.384766,4345.000000,4328.077148,4342.820313,4329.487305,4336.794922,4336.666504,4330.000000,4313.589844,4324.743652,4444.102539,4483.205078,4393.846191,4405.000000,5839.000000,0.000000,4.000000,,,,0.000000,4.000000,4.000000,4.000000,4.000000,4.000000,4.000000,4.000000,4.000000,4.000000,4.000000,4.000000,4.000000,4.000000,4.000000,100.000000,,,,,,,,,,,,,,,,,,,,,,,,,,,,,,,,,,,,,,,,,,,,,,,,,,,,,,,,,,,,,,,,,,,,0.000000,0.000000,1.000000,0.000000,512.000000,0.361663,,,,,,,,,,,,,,,,,,,,,,,,,,,,,,,,,,,,,,,,,,,,,,,,,,,,,,,,,,,,,,,,,,,,,,
1717571944.126571,108.000000,0.000000,4337.948730,4337.307617,4324.743652,4329.487305,4325.256348,4335.641113,4335.128418,4325.128418,4308.205078,4318.717773,4433.974121,4474.102539,4383.205078,4397.436035,6698.000000,0.000000,4.000000,,,,0.000000,4.000000,4.000000,4.000000,4.000000,4.000000,4.000000,4.000000,4.000000,4.000000,4.000000,4.000000,4.000000,4.000000,4.000000,100.000000,,,,,,,,,,,,,,,,,27.000000,0.000000,0.385463,-0.548462,-0.352051,-0.653198,0.993652,0.037236,0.152607,-34.334560,-30.527964,23.670300,,,,,,,,,,,,,,,,,,,,,,,,,,,,,,,,,,,,,,,,,,,,,,,,,,,,,,,,,,,,,,,,,,,,,,,,,,,,,,,,,,,,,,,,,,,,,,,,,,,,,,,,,,,,,,,,,,,
1717571944.134379,109.000000,0.000000,4339.871582,4332.948730,4325.897461,4329.743652,4325.128418,4334.102539,4332.692383,4323.461426,4311.666504,4318.461426,4423.461426,4473.333496,4383.205078,4398.205078,6763.000000,0.000000,4.000000,,,,0.000000,4.000000,4.000000,4.000000,4.000000,4.000000,4.000000,4.000000,4.000000,4.000000,4.000000,4.000000,4.000000,4.000000,4.000000,100.000000,,,,,,,,,,,,,,,,,,,,,,,,,,,,,,,,,,,,,,,,,,,,,,,,,,,,,,,,,,,,,,,,,,,,,,,,,,,,,,,,,,,,,,,,,,,,,,,,,,,,,,,,,,,,,,,,,,,,,,,,,,,,,,,,,,,,,,,,,,,,,,,
1717571944.142187,110.000000,0.000000,4341.282227,4349.230957,4331.666504,4344.615234,4332.820313,4337.436035,4334.743652,4331.410156,4320.769043,4323.717773,4426.153809,4481.153809,4381.282227,4402.307617,6043.000000,0.000000,4.000000,,,,0.000000,4.000000,4.000000,4.000000,4.000000,4.000000,4.000000,4.000000,4.000000,4.000000,4.000000,4.000000,4.000000,4.000000,4.000000,100.000000,,,,,,,,,,,,,,,,,,,,,,,,,,,,,,,,,,,,,,,,,,,,,,,,,,,,,,,,,,,,,,,,,,,,,,,,,,,,,,,,,,,,,,,,,,,,,,,,,,,,,,,,,,,,,,,,,,,,,,,,,,,,,,,,,,,,,,,,,,,,,,,
1717571944.149895,111.000000,0.000000,4344.871582,4357.307617,4336.025879,4353.717773,4335.897461,4342.692383,4343.461426,4342.436035,4329.487305,4331.025879,4443.461426,4492.436035,4389.102539,4409.871582,5839.000000,0.000000,4.000000,,,,0.000000,4.000000,4.000000,4.000000,4.000000,4.000000,4.000000,4.000000,4.000000,4.000000,4.000000,4.000000,4.000000,4.000000,4.000000,100.000000,,,,,,,,,,,,,,,,,,,,,,,,,,,,,,,,,,,,,,,,,,,,,,,,,,,,,,,,,,,,,,,,,,,,0.000000,0.000000,1.000000,0.000000,512.000000,0.361663,,,,,,,,,,,,,,,,,,,,,,,,,,,,,,,,,,,,,,,,,,,,,,,,,,,,,,,,,,,,,,,,,,,,,,
1717571944.157603,112.000000,0.000000,4334.871582,4330.384766,4323.717773,4329.358887,4322.051270,4332.436035,4340.384766,4333.974121,4323.461426,4325.512695,4433.461426,4478.077148,4382.563965,4396.794922,6698.000000,0.000000,4.000000,,,,0.000000,4.000000,4.000000,4.000000,4.000000,4.000000,4.000000,4.000000,4.000000,4.000000,4.000000,4.000000,4.000000,4.000000,4.000000,100.000000,,,,,,,,,,,,,,,,,28.000000,0.000000,0.385645,-0.548401,-0.352173,-0.653076,0.990722,0.022097,0.145281,-34.348770,-30.571148,23.402250,,,,,,,,,,,,,,,,,,,,,,,,,,,,,,,,,,,,,,,,,,,,,,,,,,,,,,,,,,,,,,,,,,,,,,,,,,,,,,,,,,,,,,,,,,,,,,,,,,,,,,,,,,,,,,,,,,,
1717571944.165411,113.000000,0.000000,4325.256348,4311.922852,4313.717773,4306.666504,4312.563965,4323.589844,4332.948730,4323.589844,4317.436035,4319.102539,4412.820313,4458.846191,4364.230957,4380.000000,6763.000000,0.000000,4.000000,,,,0.000000,4.000000,4.000000,4.000000,4.000000,4.000000,4.000000,4.000000,4.000000,4.000000,4.000000,4.000000,4.000000,4.000000,4.000000,100.000000,,,,,,,,,,,,,,,,,,,,,,,,,,,,,,,,,,,,,,,,,,,,,,,,,,,,,,,,,,,,,,,,,,,,,,,,,,,,,,,,,,,,,,,,,,,,,,,,,,,,,,,,,,,,,,,,,,,,,,,,,,,,,,,,,,,,,,,,,,,,,,,
1717571944.173219,114.000000,0.000000,4339.871582,4333.717773,4329.487305,4327.179688,4327.563965,4340.384766,4345.641113,4339.358887,4328.589844,4331.666504,4437.692383,4477.436035,4380.897461,4396.922852,6043.000000,0.000000,4.000000,,,,0.000000,4.000000,4.000000,4.000000,4.000000,4.000000,4.000000,4.000000,4.000000,4.000000,4.000000,4.000000,4.000000,4.000000,4.000000,100.000000,,,,,,,,,,,,,,,,,,,,,,,,,,,,,,,,,,,,,,,,,,,,,,,,,,,,,,,,,,,,,,,,,,,,,,,,,,,,,,,,,,,,,,,,,,,,,,,,,,,,,,,,,,,,,,,,,,,,,,,,,,,,,,,,,,,,,,,,,,,,,,,
1717571944.181027,115.000000,0.000000,4351.025879,4350.769043,4341.538574,4349.871582,4337.051270,4353.974121,4361.538574,4353.846191,4337.948730,4339.871582,4464.230957,4498.974121,4406.282227,4417.563965,5839.000000,0.000000,4.000000,,,,0.000000,4.000000,4.000000,4.000000,4.000000,4.000000,4.000000,4.000000,4.000000,4.000000,4.000000,4.000000,4.000000,4.000000,4.000000,100.000000,,,,,,,,,,,,,,,,,,,,,,,,,,,,,1.000000,0.000000,0.000000,,,,,,,,,,,,,,,,,,,,,,,,,,,,,,,,,,,,,0.000000,0.000000,1.000000,0.000000,512.000000,0.110741,1.927200,0.289363,0.134389,0.041523,0.014204,1.900443,0.205258,0.038621,0.028571,0.008816,1.432830,0.179587,0.089817,0.027671,0.010983,2.228249,0.300558,0.140266,0.060681,0.016082,0.520569,0.061082,0.046009,0.016063,0.006196,0.485814,0.070883,0.049903,0.024352,0.011597,0.437179,0.072912,0.061299,0.021273,0.010434,0.420726,0.103436,0.118050,0.027366,0.013108,0.716699,0.208488,0.211651,0.035305,0.015053,0.516419,0.183948,0.188321,0.032139,0.017309,2.509201,0.482539,0.499810,0.115364,0.041692,3.915362,0.496553,0.308272,0.070975,0.028948,2.297315,0.277540,0.183537,0.042089,0.022202,3.838763,0.451718,0.223348,0.051252,0.018569
1717571944.188735,116.000000,0.000000,4341.794922,4332.948730,4329.615234,4342.436035,4326.794922,4343.717773,4353.974121,4340.128418,4322.692383,4326.666504,4437.692383,4481.282227,4386.153809,4403.205078,6698.000000,0.000000,4.000000,,,,0.000000,4.000000,4.000000,4.000000,4.000000,4.000000,4.000000,4.000000,4.000000,4.000000,4.000000,4.000000,4.000000,4.000000,4.000000,100.000000,,,,,,,,,,,,,,,,,29.000000,1.000000,0.385764,-0.548340,-0.352081,-0.653107,0.986082,0.024539,0.153583,-34.275772,-30.738712,23.334969,,,,,,,,,,,,,,,,,,,,,,,,,,,,,,,,,,,,,,,,,,,,,,,,,,,,,,,,,,,,,,,,,,,,,,,,,,,,,,,,,,,,,,,,,,,,,,,,,,,,,,,,,,,,,,,,,,,
1717571944.196543,117.000000,0.000000,4338.974121,4326.666504,4323.461426,4332.307617,4327.692383,4339.102539,4342.051270,4327.692383,4309.230957,4319.487305,4422.692383,4468.205078,4370.512695,4390.641113,6763.000000,0.000000,4.000000,,,,0.000000,4.000000,4.000000,4.000000,4.000000,4.000000,4.000000,4.000000,4.000000,4.000000,4.000000,4.000000,4.000000,4.000000,4.000000,100.000000,,,,,,,,,,,,,,,,,,,,,,,,,,,,,,,,,,,,,,,,,,,,,,,,,,,,,,,,,,,,,,,,,,,,,,,,,,,,,,,,,,,,,,,,,,,,,,,,,,,,,,,,,,,,,,,,,,,,,,,,,,,,,,,,,,,,,,,,,,,,,,,
1717571944.204251,118.000000,1.000000,4338.641113,4329.769043,4324.205078,4328.563965,4328.307617,4338.307617,4340.410156,4326.436035,4309.897461,4320.333496,4426.512695,4470.051270,4372.358887,4391.922852,6619.000000,0.000000,4.000000,,,,0.000000,4.000000,4.000000,4.000000,4.000000,4.000000,4.000000,4.000000,4.000000,4.000000,4.000000,4.000000,4.000000,4.000000,4.000000,100.000000,,,,,,,,,,,,,,,,,,,,,,,,,,,,,,,,,,,,,,,,,,,,,,,,,,,,,,,,,,,,,,,,,,,,,,,,,,,,,,,,,,,,,,,,,,,,,,,,,,,,,,,,,,,,,,,,,,,,,,,,,,,,,,,,,,,,,,,,,,,,,,,
1717571944.212059,119.000000,1.000000,4338.307617,4332.871582,4324.948730,4324.820313,4328.922852,4337.512695,4338.769043,4325.179688,4310.563965,4321.179688,4430.333496,4471.897461,4374.205078,4393.205078,6475.000000,0.000000,4.000000,,,,0.000000,4.000000,4.000000,4.000000,4.000000,4.000000,4.000000,4.000000,4.000000,4.000000,4.000000,4.000000,4.000000,4.000000,4.000000,100.000000,,,,,,,,,,,,,,,,,,,,,,,,,,,,,,,,,,,,,,,,,,,,,,,,,,,,,,,,,,,,,,,,,,,,0.000000,0.000000,1.000000,0.000000,512.000000,0.110741,,,,,,,,,,,,,,,,,,,,,,,,,,,,,,,,,,,,,,,,,,,,,,,,,,,,,,,,,,,,,,,,,,,,,,
