title:8-june5-II-pm-live, start timestamp:1717572050.116446, stop timestamp:1717572132.011811, headset type:EPOCX, headset serial:E50208D9, headset firmware:730, channels:182, sampling rate:eeg_128;mot_32;mc_8;pm_0.1;fe_32;pow_8, samples:5180      , version:2.2, 
Timestamp,EEG.Counter,EEG.Interpolated,EEG.AF3,EEG.F7,EEG.F3,EEG.FC5,EEG.T7,EEG.P7,EEG.O1,EEG.O2,EEG.P8,EEG.T8,EEG.FC6,EEG.F4,EEG.F8,EEG.AF4,EEG.RawCq,EEG.Battery,EEG.BatteryPercent,MarkerIndex,MarkerType,MarkerValueInt,EEG.MarkerHardware,CQ.AF3,CQ.F7,CQ.F3,CQ.FC5,CQ.T7,CQ.P7,CQ.O1,CQ.O2,CQ.P8,CQ.T8,CQ.FC6,CQ.F4,CQ.F8,CQ.AF4,CQ.Overall,EQ.SampleRateQuality,EQ.OVERALL,EQ.AF3,EQ.F7,EQ.F3,EQ.FC5,EQ.T7,EQ.P7,EQ.O1,EQ.O2,EQ.P8,EQ.T8,EQ.FC6,EQ.F4,EQ.F8,EQ.AF4,MOT.CounterMems,MOT.InterpolatedMems,MOT.Q0,MOT.Q1,MOT.Q2,MOT.Q3,MOT.AccX,MOT.AccY,MOT.AccZ,MOT.MagX,MOT.MagY,MOT.MagZ,MC.Action,MC.ActionPower,MC.IsActive,PM.Attention.IsActive,PM.Attention.Scaled,PM.Attention.Raw,PM.Attention.Min,PM.Attention.Max,PM.Engagement.IsActive,PM.Engagement.Scaled,PM.Engagement.Raw,PM.Engagement.Min,PM.Engagement.Max,PM.Excitement.IsActive,PM.Excitement.Scaled,PM.Excitement.Raw,PM.Excitement.Min,PM.Excitement.Max,PM.LongTermExcitement,PM.Stress.IsActive,PM.Stress.Scaled,PM.Stress.Raw,PM.Stress.Min,PM.Stress.Max,PM.Relaxation.IsActive,PM.Relaxation.Scaled,PM.Relaxation.Raw,PM.Relaxation.Min,PM.Relaxation.Max,PM.Interest.IsActive,PM.Interest.Scaled,PM.Interest.Raw,PM.Interest.Min,PM.Interest.Max,PM.Focus.IsActive,PM.Focus.Scaled,PM.Focus.Raw,PM.Focus.Min,PM.Focus.Max,FE.BlinkWink,FE.HorizontalEyesDirection,FE.UpperFaceAction,FE.UpperFaceActionPower,FE.LowerFaceAction,FE.LowerFaceActionPower,POW.AF3.Theta,POW.AF3.Alpha,POW.AF3.BetaL,POW.AF3.BetaH,POW.AF3.Gamma,POW.F7.Theta,POW.F7.Alpha,POW.F7.BetaL,POW.F7.BetaH,POW.F7.Gamma,POW.F3.Theta,POW.F3.Alpha,POW.F3.BetaL,POW.F3.BetaH,POW.F3.Gamma,POW.FC5.Theta,POW.FC5.Alpha,POW.FC5.BetaL,POW.FC5.BetaH,POW.FC5.Gamma,POW.T7.Theta,POW.T7.Alpha,POW.T7.BetaL,POW.T7.BetaH,POW.T7.Gamma,POW.P7.Theta,POW.P7.Alpha,POW.P7.BetaL,POW.P7.BetaH,POW.P7.Gamma,POW.O1.Theta,POW.O1.Alpha,POW.O1.BetaL,POW.O1.BetaH,POW.O1.Gamma,POW.O2.Theta,POW.O2.Alpha,POW.O2.BetaL,POW.O2.BetaH,POW.O2.Gamma,POW.P8.Theta,POW.P8.Alpha,POW.P8.BetaL,POW.P8.BetaH,POW.P8.Gamma,POW.T8.Theta,POW.T8.Alpha,POW.T8.BetaL,POW.T8.BetaH,POW.T8.Gamma,POW.FC6.Theta,POW.FC6.Alpha,POW.FC6.BetaL,POW.FC6.BetaH,POW.FC6.Gamma,POW.F4.Theta,POW.F4.Alpha,POW.F4.BetaL,POW.F4.BetaH,POW.F4.Gamma,POW.F8.Theta,POW.F8.Alpha,POW.F8.BetaL,POW.F8.BetaH,POW.F8.Gamma,POW.AF4.Theta,POW.AF4.Alpha,POW.AF4.BetaL,POW.AF4.BetaH,POW.AF4.Gamma
1717572050.116446,120.000000,0.000000,4371.922852,4353.461426,4354.743652,4357.436035,4351.025879,4357.436035,4349.102539,4355.384766,4379.743652,4329.871582,4469.230957,4515.897461,4445.769043,4455.000000,6698.000000,0.000000,4.000000,,,,0.000000,4.000000,4.000000,4.000000,4.000000,4.000000,4.000000,4.000000,4.000000,4.000000,4.000000,4.000000,4.000000,4.000000,4.000000,100.000000,,,,,,,,,,,,,,,,,30.000000,1.000000,0.418279,-0.516113,-0.443115,-0.601929,0.989989,0.085826,0.077402,-35.275402,-30.815794,28.609623,,,,,,,,,,,,,,,,,,,,,,,,,,,,,,,,,,,,,,,,,,,,,,,,,,,,,,,,,,,,,,,,,,,,,,,,,,,,,,,,,,,,,,,,,,,,,,,,,,,,,,,,,,,,,,,,,,,
1717572052.177139,119.000000,0.000000,4385.000000,4403.846191,4383.974121,4402.179688,4346.666504,4317.948730,4330.000000,4332.436035,4294.615234,4224.743652,4431.922852,4523.461426,4416.538574,4462.563965,5858.000000,0.000000,4.000000,,,,0.000000,4.000000,4.000000,4.000000,4.000000,4.000000,4.000000,4.000000,4.000000,4.000000,4.000000,4.000000,4.000000,4.000000,4.000000,100.000000,,,,,,,,,,,,,,,,,,,,,,,,,,,,,,,,,,,,,,,,,,,,,,,,,,,,,,,,,,,,,,,,,,,,,,,,,,,,,,,,,,,,,,,,,,,,,,,,,,,,,,,,,,,,,,,,,,,,,,,,,,,,,,,,,,,,,,,,,,,,,,,
1717572052.185347,120.000000,1.000000,4382.485840,4402.285156,4381.783691,4400.250977,4346.287598,4318.322266,4330.000000,4332.363281,4295.005371,4224.203125,4429.125000,4520.044434,4413.913086,4458.784668,5867.652344,0.000000,4.000000,,,,0.000000,4.000000,4.000000,4.000000,4.000000,4.000000,4.000000,4.000000,4.000000,4.000000,4.000000,4.000000,4.000000,4.000000,4.000000,100.000000,,,,,,,,,,,,,,,,,,,,,,,,,,,,,,,,,,,,,,,,,,,,,,,,,,,,,,,,,,,,,,,,,,,,,,,,,,,,,,,,,,,,,,,,,,,,,,,,,,,,,,,,,,,,,,,,,,,,,,,,,,,,,,,,,,,,,,,,,,,,,,,
1717572052.193155,121.000000,1.000000,4379.972168,4400.724609,4379.593262,4398.322266,4345.908691,4318.695801,4330.000000,4332.291016,4295.395996,4223.662109,4426.326660,4516.627441,4411.287598,4455.005371,5877.304199,0.000000,4.000000,,,,0.000000,4.000000,4.000000,4.000000,4.000000,4.000000,4.000000,4.000000,4.000000,4.000000,4.000000,4.000000,4.000000,4.000000,4.000000,100.000000,,,,,,,,,,,,,,,,,,,,,,,,,,,,,,,,,,,,,,,,,,,,,,,,,,,,,,,,,,,,,,,,,,,,10.000000,0.000000,64.000000,0.091071,1.000000,0.000000,,,,,,,,,,,,,,,,,,,,,,,,,,,,,,,,,,,,,,,,,,,,,,,,,,,,,,,,,,,,,,,,,,,,,,
1717572052.200963,122.000000,1.000000,4377.458008,4399.164063,4377.402344,4396.393555,4345.529785,4319.069336,4330.000000,4332.218750,4295.786133,4223.121582,4423.528320,4513.210938,4408.662109,4451.226074,5886.956543,0.000000,4.000000,,,,0.000000,4.000000,4.000000,4.000000,4.000000,4.000000,4.000000,4.000000,4.000000,4.000000,4.000000,4.000000,4.000000,4.000000,4.000000,100.000000,,,,,,,,,,,,,,,,,,,,,,,,,,,,,,,,,,,,,,,,,,,,,,,,,,,,,,,,,,,,,,,,,,,,,,,,,,,,,,,,,,,,,,,,,,,,,,,,,,,,,,,,,,,,,,,,,,,,,,,,,,,,,,,,,,,,,,,,,,,,,,,
1717572052.208771,123.000000,1.000000,4374.944336,4397.603027,4375.211914,4394.464844,4345.150391,4319.442383,4330.000000,4332.145996,4296.176270,4222.581055,4420.729980,4509.793945,4406.036621,4447.447266,5896.608887,0.000000,4.000000,,,,0.000000,4.000000,4.000000,4.000000,4.000000,4.000000,4.000000,4.000000,4.000000,4.000000,4.000000,4.000000,4.000000,4.000000,4.000000,100.000000,,,,,,,,,,,,,,,,,,,,,,,,,,,,,,,,,,,,,,,,,,,,,,,,,,,,,,,,,,,,,,,,,,,,,,,,,,,,,,,,,,,,,,,,,,,,,,,,,,,,,,,,,,,,,,,,,,,,,,,,,,,,,,,,,,,,,,,,,,,,,,,
1717572052.216579,124.000000,1.000000,4372.430176,4396.042480,4373.020996,4392.536133,4344.771484,4319.815918,4330.000000,4332.073730,4296.566406,4222.040039,4417.932129,4506.376953,4403.411133,4443.667969,5906.260742,0.000000,4.000000,,,,0.000000,4.000000,4.000000,4.000000,4.000000,4.000000,4.000000,4.000000,4.000000,4.000000,4.000000,4.000000,4.000000,4.000000,4.000000,100.000000,,,,,,,,,,,,,,,,,,,,,,,,,,,,,,,,,,,,,,,,,,,,,,,,,,,,,,,,,,,,,,,,,,,,,,,,,,,,,,,,,,,,,,,,,,,,,,,,,,,,,,,,,,,,,,,,,,,,,,,,,,,,,,,,,,,,,,,,,,,,,,,
1717572052.224387,125.000000,1.000000,4369.916504,4394.481445,4370.830566,4390.607422,4344.392578,4320.189453,4330.000000,4332.000977,4296.956543,4221.499512,4415.133789,4502.959961,4400.786133,4439.888672,5915.913086,0.000000,4.000000,,,,0.000000,4.000000,4.000000,4.000000,4.000000,4.000000,4.000000,4.000000,4.000000,4.000000,4.000000,4.000000,4.000000,4.000000,4.000000,100.000000,,,,,,,,,,,,,,,,,,,,,,,,,,,,,,,,,,,,,,,,,,,,,,,,,,,,,,,,,,,,,,,,,,,,0.000000,0.000000,64.000000,0.091071,1.000000,0.000000,,,,,,,,,,,,,,,,,,,,,,,,,,,,,,,,,,,,,,,,,,,,,,,,,,,,,,,,,,,,,,,,,,,,,,
1717572052.232194,126.000000,1.000000,4367.402344,4392.920898,4368.640137,4388.678711,4344.013184,4320.562988,4330.000000,4331.928711,4297.346680,4220.958984,4412.335449,4499.542969,4398.160645,4436.109375,5925.565430,0.000000,4.000000,,,,0.000000,4.000000,4.000000,4.000000,4.000000,4.000000,4.000000,4.000000,4.000000,4.000000,4.000000,4.000000,4.000000,4.000000,4.000000,100.000000,,,,,,,,,,,,,,,,,,,,,,,,,,,,,,,,,,,,,,,,,,,,,,,,,,,,,,,,,,,,,,,,,,,,,,,,,,,,,,,,,,,,,,,,,,,,,,,,,,,,,,,,,,,,,,,,,,,,,,,,,,,,,,,,,,,,,,,,,,,,,,,
1717572052.240002,127.000000,1.000000,4364.888672,4391.359863,4366.449219,4386.750488,4343.634277,4320.936523,4330.000000,4331.855957,4297.736816,4220.417969,4409.537109,4496.125977,4395.535156,4432.330078,5935.217285,0.000000,4.000000,,,,0.000000,4.000000,4.000000,4.000000,4.000000,4.000000,4.000000,4.000000,4.000000,4.000000,4.000000,4.000000,4.000000,4.000000,4.000000,100.000000,,,,,,,,,,,,,,,,,,,,,,,,,,,,,,,,,,,,,,,,,,,,,,,,,,,,,,,,,,,,,,,,,,,,,,,,,,,,,,,,,,,,,,,,,,,,,,,,,,,,,,,,,,,,,,,,,,,,,,,,,,,,,,,,,,,,,,,,,,,,,,,
1717572052.247810,0.000000,1.000000,4362.374512,4389.799316,4364.258789,4384.821777,4343.255371,4321.310059,4330.000000,4331.783691,4298.126953,4219.877441,4406.739258,4492.708984,4392.909668,4428.550781,3941.000000,0.000000,4.000000,,,,0.000000,4.000000,4.000000,4.000000,4.000000,4.000000,4.000000,4.000000,4.000000,4.000000,4.000000,4.000000,4.000000,4.000000,4.000000,100.000000,,,,,,,,,,,,,,,,,,,,,,,,,,,,,,,,,,,,,,,,,,,,,,,,,,,,,,,,,,,,,,,,,,,,,,,,,,,,,,,,,,,,,,,,,,,,,,,,,,,,,,,,,,,,,,,,,,,,,,,,,,,,,,,,,,,,,,,,,,,,,,,
1717572052.255618,1.000000,1.000000,4359.860840,4388.238770,4362.067871,4382.893066,4342.876465,4321.683594,4330.000000,4331.711426,4298.517090,4219.336914,4403.940918,4489.291992,4390.284180,4424.771484,5497.000000,0.000000,4.000000,,,,0.000000,4.000000,4.000000,4.000000,4.000000,4.000000,4.000000,4.000000,4.000000,4.000000,4.000000,4.000000,4.000000,4.000000,4.000000,100.000000,,,,,,,,,,,,,,,,,,,,,,,,,,,,,1.000000,0.000000,0.000000,,,,,,,,,,,,,,,,,,,,,,,,,,,,,,,,,,,,,0.000000,0.000000,64.000000,0.139081,1.000000,0.000000,5.047426,0.549946,0.812212,0.579908,0.125191,5.012726,0.737431,0.699357,0.321410,0.169532,2.374955,0.944835,1.501519,1.134790,0.218528,2.010070,0.922789,1.743450,1.021969,0.199913,1.369344,0.800514,1.095089,0.746550,0.136224,0.354722,0.543784,0.696655,0.554866,0.135044,1.129816,0.912502,1.103746,0.793669,0.217972,0.774102,0.715446,0.894318,0.564541,0.179330,1.922737,1.165679,1.393845,0.908131,0.286201,3.541698,1.897129,1.804816,1.228632,0.372001,5.351701,1.206612,2.219757,1.772033,0.438106,7.816843,1.178489,2.375263,1.784772,0.452622,24.931818,7.150908,5.483023,2.732295,0.821940,5.917012,1.376055,2.466537,1.879202,0.433334
1717572052.263426,2.000000,1.000000,4357.346680,4386.677734,4359.877441,4380.964355,4342.497070,4322.056641,4330.000000,4331.638672,4298.907227,4218.795898,4401.142578,4485.875000,4387.658691,4420.992188,3841.000000,0.000000,4.000000,,,,0.000000,4.000000,4.000000,4.000000,4.000000,4.000000,4.000000,4.000000,4.000000,4.000000,4.000000,4.000000,4.000000,4.000000,4.000000,100.000000,,,,,,,,,,,,,,,,,,,,,,,,,,,,,,,,,,,,,,,,,,,,,,,,,,,,,,,,,,,,,,,,,,,,,,,,,,,,,,,,,,,,,,,,,,,,,,,,,,,,,,,,,,,,,,,,,,,,,,,,,,,,,,,,,,,,,,,,,,,,,,,
1717572052.271234,3.000000,1.000000,4354.833008,4385.117188,4357.686523,4379.035645,4342.118164,4322.430176,4330.000000,4331.566406,4299.297852,4218.255371,4398.344238,4482.458008,4385.033203,4417.212891,3523.000000,0.000000,4.000000,,,,0.000000,4.000000,4.000000,4.000000,4.000000,4.000000,4.000000,4.000000,4.000000,4.000000,4.000000,4.000000,4.000000,4.000000,4.000000,100.000000,,,,,,,,,,,,,,,,,,,,,,,,,,,,,,,,,,,,,,,,,,,,,,,,,,,,,,,,,,,,,,,,,,,,,,,,,,,,,,,,,,,,,,,,,,,,,,,,,,,,,,,,,,,,,,,,,,,,,,,,,,,,,,,,,,,,,,,,,,,,,,,
1717572052.279042,4.000000,1.000000,4352.318848,4383.556152,4355.496094,4377.106934,4341.739258,4322.803711,4330.000000,4331.493652,4299.687988,4217.714844,4395.546387,4479.041016,4382.408203,4413.433594,5192.000000,0.000000,4.000000,,,,0.000000,4.000000,4.000000,4.000000,4.000000,4.000000,4.000000,4.000000,4.000000,4.000000,4.000000,4.000000,4.000000,4.000000,4.000000,100.000000,,,,,,,,,,,,,,,,,1.000000,0.000000,0.413329,-0.529785,-0.433594,-0.600403,1.010255,0.084605,0.065682,-34.775318,-30.933094,27.617226,,,,,,,,,,,,,,,,,,,,,,,,,,,,,,,,,,,,,,,,,,,,,,,,,,,,,,,,,,,,,,,,,,,,,,,,,,,,,,,,,,,,,,,,,,,,,,,,,,,,,,,,,,,,,,,,,,,
1717572052.286850,5.000000,1.000000,4349.804688,4381.995605,4353.305664,4375.178223,4341.359863,4323.177246,4330.000000,4331.421387,4300.078125,4217.173828,4392.748047,4475.624512,4379.782715,4409.654297,5404.000000,0.000000,4.000000,,,,0.000000,4.000000,4.000000,4.000000,4.000000,4.000000,4.000000,4.000000,4.000000,4.000000,4.000000,4.000000,4.000000,4.000000,4.000000,100.000000,,,,,,,,,,,,,,,,,,,,,,,,,,,,,,,,,,,,,,,,,,,,,,,,,,,,,,,,,,,,,,,,,,,,0.000000,0.000000,64.000000,0.139081,1.000000,0.000000,,,,,,,,,,,,,,,,,,,,,,,,,,,,,,,,,,,,,,,,,,,,,,,,,,,,,,,,,,,,,,,,,,,,,,
1717572052.294658,6.000000,1.000000,4347.291016,4380.434570,4351.114746,4373.249512,4340.980957,4323.550781,4330.000000,4331.349121,4300.468262,4216.633301,4389.949707,4472.207520,4377.157227,4405.875000,5183.000000,0.000000,4.000000,,,,0.000000,4.000000,4.000000,4.000000,4.000000,4.000000,4.000000,4.000000,4.000000,4.000000,4.000000,4.000000,4.000000,4.000000,4.000000,100.000000,,,,,,,,,,,,,,,,,,,,,,,,,,,,,,,,,,,,,,,,,,,,,,,,,,,,,,,,,,,,,,,,,,,,,,,,,,,,,,,,,,,,,,,,,,,,,,,,,,,,,,,,,,,,,,,,,,,,,,,,,,,,,,,,,,,,,,,,,,,,,,,
1717572052.302466,7.000000,1.000000,4344.776855,4378.874023,4348.924316,4371.321289,4340.602051,4323.924316,4330.000000,4331.276367,4300.858398,4216.092773,4387.151855,4468.790527,4374.531738,4402.095703,4672.000000,0.000000,4.000000,,,,0.000000,4.000000,4.000000,4.000000,4.000000,4.000000,4.000000,4.000000,4.000000,4.000000,4.000000,4.000000,4.000000,4.000000,4.000000,100.000000,,,,,,,,,,,,,,,,,,,,,,,,,,,,,,,,,,,,,,,,,,,,,,,,,,,,,,,,,,,,,,,,,,,,,,,,,,,,,,,,,,,,,,,,,,,,,,,,,,,,,,,,,,,,,,,,,,,,,,,,,,,,,,,,,,,,,,,,,,,,,,,
1717572052.310274,8.000000,1.000000,4342.263184,4377.313477,4346.733398,4369.392578,4340.223145,4324.297852,4330.000000,4331.204102,4301.248535,4215.551758,4384.353516,4465.373535,4371.906250,4398.316406,5198.000000,0.000000,4.000000,,,,0.000000,4.000000,4.000000,4.000000,4.000000,4.000000,4.000000,4.000000,4.000000,4.000000,4.000000,4.000000,4.000000,4.000000,4.000000,100.000000,,,,,,,,,,,,,,,,,2.000000,1.000000,0.414169,-0.528320,-0.434784,-0.600250,1.010743,0.079966,0.068368,-34.682495,-30.996950,27.542755,,,,,,,,,,,,,,,,,,,,,,,,,,,,,,,,,,,,,,,,,,,,,,,,,,,,,,,,,,,,,,,,,,,,,,,,,,,,,,,,,,,,,,,,,,,,,,,,,,,,,,,,,,,,,,,,,,,
1717572052.318082,9.000000,1.000000,4339.749023,4375.752441,4344.542969,4367.463867,4339.843750,4324.670898,4330.000000,4331.131348,4301.638672,4215.011230,4381.555176,4461.956543,4369.280762,4394.537109,4784.000000,0.000000,4.000000,,,,0.000000,4.000000,4.000000,4.000000,4.000000,4.000000,4.000000,4.000000,4.000000,4.000000,4.000000,4.000000,4.000000,4.000000,4.000000,100.000000,,,,,,,,,,,,,,,,,,,,,,,,,,,,,,,,,,,,,,,,,,,,,,,,,,,,,,,,,,,,,,,,,,,,0.000000,0.000000,64.000000,0.139081,1.000000,0.000000,,,,,,,,,,,,,,,,,,,,,,,,,,,,,,,,,,,,,,,,,,,,,,,,,,,,,,,,,,,,,,,,,,,,,,
1717572052.325890,10.000000,1.000000,4337.235352,4374.191895,4342.352051,4365.535156,4339.464844,4325.044434,4330.000000,4331.059082,4302.028809,4214.470215,4378.756836,4458.539551,4366.655762,4390.758301,6035.000000,0.000000,4.000000,,,,0.000000,4.000000,4.000000,4.000000,4.000000,4.000000,4.000000,4.000000,4.000000,4.000000,4.000000,4.000000,4.000000,4.000000,4.000000,100.000000,,,,,,,,,,,,,,,,,,,,,,,,,,,,,,,,,,,,,,,,,,,,,,,,,,,,,,,,,,,,,,,,,,,,,,,,,,,,,,,,,,,,,,,,,,,,,,,,,,,,,,,,,,,,,,,,,,,,,,,,,,,,,,,,,,,,,,,,,,,,,,,
1717572052.333698,11.000000,1.000000,4334.721191,4372.630859,4340.161621,4363.606445,4339.085938,4325.417969,4330.000000,4330.986816,4302.418945,4213.929688,4375.958984,4455.122559,4364.030273,4386.979004,5836.000000,0.000000,4.000000,,,,0.000000,4.000000,4.000000,4.000000,4.000000,4.000000,4.000000,4.000000,4.000000,4.000000,4.000000,4.000000,4.000000,4.000000,4.000000,100.000000,,,,,,,,,,,,,,,,,,,,,,,,,,,,,,,,,,,,,,,,,,,,,,,,,,,,,,,,,,,,,,,,,,,,,,,,,,,,,,,,,,,,,,,,,,,,,,,,,,,,,,,,,,,,,,,,,,,,,,,,,,,,,,,,,,,,,,,,,,,,,,,
1717572052.341506,12.000000,1.000000,4332.207520,4371.070313,4337.971191,4361.677734,4338.707031,4325.791504,4330.000000,4330.914063,4302.809570,4213.389160,4373.160645,4451.705566,4361.404785,4383.199707,6698.000000,0.000000,4.000000,,,,0.000000,4.000000,4.000000,4.000000,4.000000,4.000000,4.000000,4.000000,4.000000,4.000000,4.000000,4.000000,4.000000,4.000000,4.000000,100.000000,,,,,,,,,,,,,,,,,3.000000,0.000000,0.415009,-0.526855,-0.435974,-0.600098,1.011232,0.075327,0.071054,-34.589676,-31.060806,27.468285,,,,,,,,,,,,,,,,,,,,,,,,,,,,,,,,,,,,,,,,,,,,,,,,,,,,,,,,,,,,,,,,,,,,,,,,,,,,,,,,,,,,,,,,,,,,,,,,,,,,,,,,,,,,,,,,,,,
1717572052.349314,13.000000,1.000000,4329.693359,4369.509277,4335.780273,4359.749023,4338.327637,4326.165039,4330.000000,4330.841797,4303.199707,4212.848145,4370.362305,4448.288574,4358.779297,4379.420410,6768.000000,0.000000,4.000000,,,,0.000000,4.000000,4.000000,4.000000,4.000000,4.000000,4.000000,4.000000,4.000000,4.000000,4.000000,4.000000,4.000000,4.000000,4.000000,100.000000,,,,,,,,,,,,,,,,,,,,,,,,,,,,,,,,,,,,,,,,,,,,,,,,,,,,,,,,,,,,,,,,,,,,0.000000,0.000000,64.000000,0.139081,1.000000,0.000000,,,,,,,,,,,,,,,,,,,,,,,,,,,,,,,,,,,,,,,,,,,,,,,,,,,,,,,,,,,,,,,,,,,,,,
1717572052.357122,14.000000,0.000000,4327.179688,4367.948730,4333.589844,4357.820313,4337.948730,4326.538574,4330.000000,4330.769043,4303.589844,4212.307617,4367.563965,4444.871582,4356.153809,4375.641113,6080.000000,0.000000,4.000000,,,,0.000000,4.000000,4.000000,4.000000,4.000000,4.000000,4.000000,4.000000,4.000000,4.000000,4.000000,4.000000,4.000000,4.000000,4.000000,100.000000,,,,,,,,,,,,,,,,,,,,,,,,,,,,,,,,,,,,,,,,,,,,,,,,,,,,,,,,,,,,,,,,,,,,,,,,,,,,,,,,,,,,,,,,,,,,,,,,,,,,,,,,,,,,,,,,,,,,,,,,,,,,,,,,,,,,,,,,,,,,,,,
1717572052.365030,15.000000,1.000000,4327.997559,4368.001465,4334.223145,4358.668945,4338.717773,4327.666016,4330.987793,4331.251953,4304.310059,4213.857422,4368.936523,4446.199219,4357.861816,4376.644043,5811.000000,0.000000,4.000000,,,,0.000000,4.000000,4.000000,4.000000,4.000000,4.000000,4.000000,4.000000,4.000000,4.000000,4.000000,4.000000,4.000000,4.000000,4.000000,100.000000,,,,,,,,,,,,,,,,,,,,,,,,,,,,,,,,,,,,,,,,,,,,,,,,,,,,,,,,,,,,,,,,,,,,,,,,,,,,,,,,,,,,,,,,,,,,,,,,,,,,,,,,,,,,,,,,,,,,,,,,,,,,,,,,,,,,,,,,,,,,,,,
1717572052.372838,16.000000,1.000000,4328.815918,4368.054199,4334.856934,4359.517578,4339.487305,4328.793457,4331.976074,4331.734375,4305.030273,4215.407227,4370.309082,4447.526367,4359.570313,4377.646973,5722.353027,0.000000,4.000000,,,,0.000000,4.000000,4.000000,4.000000,4.000000,4.000000,4.000000,4.000000,4.000000,4.000000,4.000000,4.000000,4.000000,4.000000,4.000000,100.000000,,,,,,,,,,,,,,,,,4.000000,1.000000,0.415272,-0.526685,-0.436182,-0.599915,1.008888,0.075620,0.069979,-34.503273,-31.100946,27.463165,,,,,,,,,,,,,,,,,,,,,,,,,,,,,,,,,,,,,,,,,,,,,,,,,,,,,,,,,,,,,,,,,,,,,,,,,,,,,,,,,,,,,,,,,,,,,,,,,,,,,,,,,,,,,,,,,,,
1717572052.380646,17.000000,1.000000,4329.634277,4368.106934,4335.490234,4360.365723,4340.256348,4329.920898,4332.963867,4332.217285,4305.750488,4216.957031,4371.681641,4448.853516,4361.278320,4378.649902,5543.529297,0.000000,4.000000,,,,0.000000,4.000000,4.000000,4.000000,4.000000,4.000000,4.000000,4.000000,4.000000,4.000000,4.000000,4.000000,4.000000,4.000000,4.000000,100.000000,-1.000000,25.000000,3.000000,4.000000,1.000000,4.000000,3.000000,3.000000,3.000000,1.000000,3.000000,1.000000,1.000000,3.000000,1.000000,1.000000,,,,,,,,,,,,,1.000000,0.000000,0.000000,,,,,,,,,,,,,,,,,,,,,,,,,,,,,,,,,,,,,0.000000,0.000000,64.000000,0.105178,1.000000,0.000000,5.605949,0.785877,0.926935,0.754190,0.139870,6.037122,0.936255,0.669674,0.295857,0.141118,2.538722,1.366924,1.800664,1.514776,0.280368,2.596207,1.074510,1.717053,1.284461,0.244400,1.156674,1.051204,1.301659,0.967943,0.165842,0.549998,0.743324,0.854708,0.757013,0.158537,1.430287,1.201885,1.128332,0.965278,0.251316,0.856925,0.893196,0.917500,0.697834,0.202026,2.394555,1.546215,1.687861,1.212232,0.353152,3.892484,2.657797,2.421313,1.657239,0.458928,3.981273,1.515107,2.659274,2.430997,0.507303,7.311634,1.731593,2.742965,2.374590,0.519829,16.027113,6.761316,5.862796,3.452905,0.793820,5.473572,1.943395,2.981276,2.525553,0.515398
1717572052.388454,18.000000,1.000000,4330.452637,4368.159668,4336.123535,4361.214355,4341.025879,4331.048340,4333.951660,4332.699707,4306.470703,4218.506836,4373.054199,4450.181152,4362.986328,4379.653320,5364.706055,0.000000,4.000000,,,,0.000000,4.000000,4.000000,4.000000,4.000000,4.000000,4.000000,4.000000,4.000000,4.000000,4.000000,4.000000,4.000000,4.000000,4.000000,100.000000,,,,,,,,,,,,,,,,,,,,,,,,,,,,,,,,,,,,,,,,,,,,,,,,,,,,,,,,,,,,,,,,,,,,,,,,,,,,,,,,,,,,,,,,,,,,,,,,,,,,,,,,,,,,,,,,,,,,,,,,,,,,,,,,,,,,,,,,,,,,,,,
1717572052.396262,19.000000,1.000000,4331.270508,4368.212891,4336.757324,4362.062500,4341.794922,4332.175781,4334.939453,4333.182617,4307.190918,4220.056641,4374.426758,4451.508301,4364.694336,4380.656250,5185.882324,0.000000,4.000000,,,,0.000000,4.000000,4.000000,4.000000,4.000000,4.000000,4.000000,4.000000,4.000000,4.000000,4.000000,4.000000,4.000000,4.000000,4.000000,100.000000,,,,,,,,,,,,,,,,,,,,,,,,,,,,,,,,,,,,,,,,,,,,,,,,,,,,,,,,,,,,,,,,,,,,,,,,,,,,,,,,,,,,,,,,,,,,,,,,,,,,,,,,,,,,,,,,,,,,,,,,,,,,,,,,,,,,,,,,,,,,,,,
1717572052.404070,20.000000,1.000000,4332.088867,4368.265625,4337.390625,4362.911133,4342.563965,4333.303223,4335.927734,4333.665039,4307.911133,4221.606445,4375.799316,4452.835449,4366.402832,4381.659180,5007.058594,0.000000,4.000000,,,,0.000000,4.000000,4.000000,4.000000,4.000000,4.000000,4.000000,4.000000,4.000000,4.000000,4.000000,4.000000,4.000000,4.000000,4.000000,100.000000,,,,,,,,,,,,,,,,,5.000000,1.000000,0.415535,-0.526514,-0.436389,-0.599731,1.006544,0.075913,0.068905,-34.416874,-31.141087,27.458044,,,,,,,,,,,,,,,,,,,,,,,,,,,,,,,,,,,,,,,,,,,,,,,,,,,,,,,,,,,,,,,,,,,,,,,,,,,,,,,,,,,,,,,,,,,,,,,,,,,,,,,,,,,,,,,,,,,
1717572052.411878,21.000000,1.000000,4332.907227,4368.318359,4338.023926,4363.759277,4343.333496,4334.430664,4336.915527,4334.147949,4308.631348,4223.156250,4377.171875,4454.163086,4368.110840,4382.662109,4828.235352,0.000000,4.000000,,,,0.000000,4.000000,4.000000,4.000000,4.000000,4.000000,4.000000,4.000000,4.000000,4.000000,4.000000,4.000000,4.000000,4.000000,4.000000,100.000000,,,,,,,,,,,,,,,,,,,,,,,,,,,,,,,,,,,,,,,,,,,,,,,,,,,,,,,,,,,,,,,,,,,,0.000000,0.000000,64.000000,0.105178,1.000000,0.000000,,,,,,,,,,,,,,,,,,,,,,,,,,,,,,,,,,,,,,,,,,,,,,,,,,,,,,,,,,,,,,,,,,,,,,
1717572052.419686,22.000000,1.000000,4333.725586,4368.371094,4338.657715,4364.607910,4344.102539,4335.558105,4337.903320,4334.630371,4309.351563,4224.706055,4378.544434,4455.490234,4369.818848,4383.665039,4649.411621,0.000000,4.000000,,,,0.000000,4.000000,4.000000,4.000000,4.000000,4.000000,4.000000,4.000000,4.000000,4.000000,4.000000,4.000000,4.000000,4.000000,4.000000,100.000000,,,,,,,,,,,,,,,,,,,,,,,,,,,,,,,,,,,,,,,,,,,,,,,,,,,,,,,,,,,,,,,,,,,,,,,,,,,,,,,,,,,,,,,,,,,,,,,,,,,,,,,,,,,,,,,,,,,,,,,,,,,,,,,,,,,,,,,,,,,,,,,
1717572052.427494,23.000000,1.000000,4334.543945,4368.423828,4339.291016,4365.456055,4344.871582,4336.685547,4338.891602,4335.113281,4310.071777,4226.255859,4379.916992,4456.817383,4371.527344,4384.667969,4470.588379,0.000000,4.000000,,,,0.000000,4.000000,4.000000,4.000000,4.000000,4.000000,4.000000,4.000000,4.000000,4.000000,4.000000,4.000000,4.000000,4.000000,4.000000,100.000000,,,,,,,,,,,,,,,,,,,,,,,,,,,,,,,,,,,,,,,,,,,,,,,,,,,,,,,,,,,,,,,,,,,,,,,,,,,,,,,,,,,,,,,,,,,,,,,,,,,,,,,,,,,,,,,,,,,,,,,,,,,,,,,,,,,,,,,,,,,,,,,
1717572052.435302,24.000000,1.000000,4335.361816,4368.476563,4339.924805,4366.304688,4345.641113,4337.812988,4339.879395,4335.595703,4310.791992,4227.805664,4381.289551,4458.145020,4373.235352,4385.671387,4291.764648,0.000000,4.000000,,,,0.000000,4.000000,4.000000,4.000000,4.000000,4.000000,4.000000,4.000000,4.000000,4.000000,4.000000,4.000000,4.000000,4.000000,4.000000,100.000000,,,,,,,,,,,,,,,,,6.000000,1.000000,0.415797,-0.526343,-0.436597,-0.599548,1.004200,0.076206,0.067831,-34.330475,-31.181227,27.452923,,,,,,,,,,,,,,,,,,,,,,,,,,,,,,,,,,,,,,,,,,,,,,,,,,,,,,,,,,,,,,,,,,,,,,,,,,,,,,,,,,,,,,,,,,,,,,,,,,,,,,,,,,,,,,,,,,,
1717572052.443110,25.000000,1.000000,4336.180176,4368.529297,4340.558105,4367.153320,4346.410156,4338.940430,4340.867188,4336.078613,4311.512207,4229.354980,4382.662109,4459.472168,4374.943359,4386.674316,4112.941406,0.000000,4.000000,,,,0.000000,4.000000,4.000000,4.000000,4.000000,4.000000,4.000000,4.000000,4.000000,4.000000,4.000000,4.000000,4.000000,4.000000,4.000000,100.000000,,,,,,,,,,,,,,,,,,,,,,,,,,,,,,,,,,,,,,,,,,,,,,,,,,,,,,,,,,,,,,,,,,,,0.000000,0.000000,64.000000,0.105178,1.000000,0.000000,,,,,,,,,,,,,,,,,,,,,,,,,,,,,,,,,,,,,,,,,,,,,,,,,,,,,,,,,,,,,,,,,,,,,,
1717572052.450918,26.000000,1.000000,4336.998535,4368.582031,4341.191406,4368.001465,4347.179688,4340.067871,4341.854980,4336.561035,4312.232422,4230.904785,4384.034668,4460.799316,4376.651367,4387.677246,3934.117676,0.000000,4.000000,,,,0.000000,4.000000,4.000000,4.000000,4.000000,4.000000,4.000000,4.000000,4.000000,4.000000,4.000000,4.000000,4.000000,4.000000,4.000000,100.000000,,,,,,,,,,,,,,,,,,,,,,,,,,,,,,,,,,,,,,,,,,,,,,,,,,,,,,,,,,,,,,,,,,,,,,,,,,,,,,,,,,,,,,,,,,,,,,,,,,,,,,,,,,,,,,,,,,,,,,,,,,,,,,,,,,,,,,,,,,,,,,,
1717572052.458726,27.000000,1.000000,4337.816895,4368.634766,4341.825195,4368.850098,4347.948730,4341.195313,4342.843262,4337.043945,4312.952637,4232.454590,4385.407227,4462.126465,4378.359863,4388.680176,3755.294189,0.000000,4.000000,,,,0.000000,4.000000,4.000000,4.000000,4.000000,4.000000,4.000000,4.000000,4.000000,4.000000,4.000000,4.000000,4.000000,4.000000,4.000000,100.000000,,,,,,,,,,,,,,,,,,,,,,,,,,,,,,,,,,,,,,,,,,,,,,,,,,,,,,,,,,,,,,,,,,,,,,,,,,,,,,,,,,,,,,,,,,,,,,,,,,,,,,,,,,,,,,,,,,,,,,,,,,,,,,,,,,,,,,,,,,,,,,,
1717572052.466533,28.000000,1.000000,4338.634766,4368.687988,4342.458496,4369.698242,4348.717773,4342.322754,4343.831055,4337.526367,4313.672852,4234.004395,4386.779785,4463.454102,4380.067871,4389.683105,3576.470703,0.000000,4.000000,,,,0.000000,4.000000,4.000000,4.000000,4.000000,4.000000,4.000000,4.000000,4.000000,4.000000,4.000000,4.000000,4.000000,4.000000,4.000000,100.000000,,,,,,,,,,,,,,,,,7.000000,1.000000,0.416060,-0.526172,-0.436804,-0.599365,1.001856,0.076499,0.066756,-34.244076,-31.221367,27.447802,,,,,,,,,,,,,,,,,,,,,,,,,,,,,,,,,,,,,,,,,,,,,,,,,,,,,,,,,,,,,,,,,,,,,,,,,,,,,,,,,,,,,,,,,,,,,,,,,,,,,,,,,,,,,,,,,,,
1717572052.474341,29.000000,1.000000,4339.453125,4368.740723,4343.091797,4370.546875,4349.487305,4343.450195,4344.818848,4338.009277,4314.393066,4235.554199,4388.152344,4464.781250,4381.775879,4390.686035,3397.646973,0.000000,4.000000,,,,0.000000,4.000000,4.000000,4.000000,4.000000,4.000000,4.000000,4.000000,4.000000,4.000000,4.000000,4.000000,4.000000,4.000000,4.000000,100.000000,,,,,,,,,,,,,,,,,,,,,,,,,,,,,,,,,,,,,,,,,,,,,,,,,,,,,,,,,,,,,,,,,,,,0.000000,0.000000,64.000000,0.105178,1.000000,0.000000,,,,,,,,,,,,,,,,,,,,,,,,,,,,,,,,,,,,,,,,,,,,,,,,,,,,,,,,,,,,,,,,,,,,,,
1717572052.482149,30.000000,1.000000,4340.271484,4368.793457,4343.725586,4371.395020,4350.256348,4344.577637,4345.807129,4338.491699,4315.113281,4237.104004,4389.524902,4466.108398,4383.484375,4391.689453,3218.823486,0.000000,4.000000,,,,0.000000,4.000000,4.000000,4.000000,4.000000,4.000000,4.000000,4.000000,4.000000,4.000000,4.000000,4.000000,4.000000,4.000000,4.000000,100.000000,,,,,,,,,,,,,,,,,,,,,,,,,,,,,,,,,,,,,,,,,,,,,,,,,,,,,,,,,,,,,,,,,,,,,,,,,,,,,,,,,,,,,,,,,,,,,,,,,,,,,,,,,,,,,,,,,,,,,,,,,,,,,,,,,,,,,,,,,,,,,,,
1717572052.489957,31.000000,1.000000,4341.089844,4368.846191,4344.358887,4372.243652,4351.025879,4345.705078,4346.794922,4338.974121,4315.833496,4238.653809,4390.897461,4467.436035,4385.192383,4392.692383,3040.000000,0.000000,4.000000,,,,0.000000,4.000000,4.000000,4.000000,4.000000,4.000000,4.000000,4.000000,4.000000,4.000000,4.000000,4.000000,4.000000,4.000000,4.000000,100.000000,,,,,,,,,,,,,,,,,,,,,,,,,,,,,,,,,,,,,,,,,,,,,,,,,,,,,,,,,,,,,,,,,,,,,,,,,,,,,,,,,,,,,,,,,,,,,,,,,,,,,,,,,,,,,,,,,,,,,,,,,,,,,,,,,,,,,,,,,,,,,,,
1717572052.497765,32.000000,1.000000,4341.908203,4368.898926,4344.992676,4373.091797,4351.794922,4346.832520,4347.782715,4339.457031,4316.553711,4240.203613,4392.270020,4468.763184,4386.900391,4393.695313,2861.176514,0.000000,4.000000,,,,0.000000,4.000000,4.000000,4.000000,4.000000,4.000000,4.000000,4.000000,4.000000,4.000000,4.000000,4.000000,4.000000,4.000000,4.000000,100.000000,,,,,,,,,,,,,,,,,8.000000,0.000000,0.416323,-0.526001,-0.437012,-0.599182,0.999512,0.076792,0.065682,-34.157677,-31.261507,27.442680,,,,,,,,,,,,,,,,,,,,,,,,,,,,,,,,,,,,,,,,,,,,,,,,,,,,,,,,,,,,,,,,,,,,,,,,,,,,,,,,,,,,,,,,,,,,,,,,,,,,,,,,,,,,,,,,,,,
1717572052.505573,33.000000,1.000000,4342.726074,4368.951660,4345.625977,4373.940430,4352.563965,4347.959961,4348.770508,4339.939453,4317.273926,4241.753418,4393.642578,4470.090332,4388.608398,4394.698242,2682.353027,0.000000,4.000000,,,,0.000000,4.000000,4.000000,4.000000,4.000000,4.000000,4.000000,4.000000,4.000000,4.000000,4.000000,4.000000,4.000000,4.000000,4.000000,100.000000,,,,,,,,,,,,,,,,,,,,,,,,,,,,,1.000000,0.000000,0.000000,,,,,,,,,,,,,,,,,,,,,,,,,,,,,,,,,,,,,0.000000,0.000000,64.000000,0.102461,1.000000,0.000000,6.342072,1.034019,1.022198,0.889705,0.160133,7.509779,1.139069,0.653841,0.318116,0.145241,3.043598,1.744238,1.996807,1.782931,0.335029,3.876342,1.275085,1.737488,1.487218,0.297510,1.004549,1.236538,1.445682,1.121841,0.192455,0.846868,0.945385,1.009782,0.925933,0.187728,1.786539,1.472282,1.147930,1.110684,0.282145,1.107942,1.051565,0.954982,0.818780,0.228824,3.287408,1.863959,2.007177,1.467864,0.420155,4.795033,3.265264,2.961421,2.004797,0.537430,3.193954,1.868833,3.025556,2.949670,0.580776,7.563643,2.307051,3.032814,2.814799,0.587716,9.901940,6.540935,5.983628,3.953186,0.771255,5.861000,2.458566,3.317759,2.995901,0.580209
1717572052.513381,34.000000,1.000000,4343.544434,4369.004395,4346.259277,4374.789063,4353.333496,4349.087402,4349.758789,4340.422363,4317.994141,4243.303223,4395.015137,4471.417969,4390.316895,4395.701172,2503.529297,0.000000,4.000000,,,,0.000000,4.000000,4.000000,4.000000,4.000000,4.000000,4.000000,4.000000,4.000000,4.000000,4.000000,4.000000,4.000000,4.000000,4.000000,100.000000,,,,,,,,,,,,,,,,,,,,,,,,,,,,,,,,,,,,,,,,,,,,,,,,,,,,,,,,,,,,,,,,,,,,,,,,,,,,,,,,,,,,,,,,,,,,,,,,,,,,,,,,,,,,,,,,,,,,,,,,,,,,,,,,,,,,,,,,,,,,,,,
1717572052.521189,35.000000,1.000000,4344.362793,4369.057129,4346.893066,4375.637207,4354.102539,4350.214844,4350.746582,4340.904785,4318.714355,4244.853027,4396.387695,4472.745117,4392.024902,4396.704590,2324.705811,0.000000,4.000000,,,,0.000000,4.000000,4.000000,4.000000,4.000000,4.000000,4.000000,4.000000,4.000000,4.000000,4.000000,4.000000,4.000000,4.000000,4.000000,100.000000,,,,,,,,,,,,,,,,,,,,,,,,,,,,,,,,,,,,,,,,,,,,,,,,,,,,,,,,,,,,,,,,,,,,,,,,,,,,,,,,,,,,,,,,,,,,,,,,,,,,,,,,,,,,,,,,,,,,,,,,,,,,,,,,,,,,,,,,,,,,,,,
1717572052.528997,36.000000,1.000000,4345.181152,4369.109863,4347.526367,4376.485840,4354.871582,4351.342285,4351.734375,4341.387695,4319.434570,4246.402832,4397.760254,4474.072266,4393.732910,4397.707520,2145.882324,0.000000,4.000000,,,,0.000000,4.000000,4.000000,4.000000,4.000000,4.000000,4.000000,4.000000,4.000000,4.000000,4.000000,4.000000,4.000000,4.000000,4.000000,100.000000,,,,,,,,,,,,,,,,,9.000000,1.000000,0.416370,-0.526062,-0.436768,-0.599274,1.001465,0.081187,0.064705,-34.116459,-31.265099,27.487213,,,,,,,,,,,,,,,,,,,,,,,,,,,,,,,,,,,,,,,,,,,,,,,,,,,,,,,,,,,,,,,,,,,,,,,,,,,,,,,,,,,,,,,,,,,,,,,,,,,,,,,,,,,,,,,,,,,
1717572052.536805,37.000000,1.000000,4345.999023,4369.163086,4348.159668,4377.333984,4355.641113,4352.469727,4352.722656,4341.870117,4320.154785,4247.952637,4399.132813,4475.399902,4395.441406,4398.710449,1967.058838,0.000000,4.000000,,,,0.000000,4.000000,4.000000,4.000000,4.000000,4.000000,4.000000,4.000000,4.000000,4.000000,4.000000,4.000000,4.000000,4.000000,4.000000,100.000000,,,,,,,,,,,,,,,,,,,,,,,,,,,,,,,,,,,,,,,,,,,,,,,,,,,,,,,,,,,,,,,,,,,,0.000000,0.000000,64.000000,0.102461,1.000000,0.000000,,,,,,,,,,,,,,,,,,,,,,,,,,,,,,,,,,,,,,,,,,,,,,,,,,,,,,,,,,,,,,,,,,,,,,
1717572052.544613,38.000000,1.000000,4346.817383,4369.215820,4348.793457,4378.182617,4356.410156,4353.597168,4353.710449,4342.353027,4320.875000,4249.502441,4400.505371,4476.727051,4397.149414,4399.713379,1788.235352,0.000000,4.000000,,,,0.000000,4.000000,4.000000,4.000000,4.000000,4.000000,4.000000,4.000000,4.000000,4.000000,4.000000,4.000000,4.000000,4.000000,4.000000,100.000000,,,,,,,,,,,,,,,,,,,,,,,,,,,,,,,,,,,,,,,,,,,,,,,,,,,,,,,,,,,,,,,,,,,,,,,,,,,,,,,,,,,,,,,,,,,,,,,,,,,,,,,,,,,,,,,,,,,,,,,,,,,,,,,,,,,,,,,,,,,,,,,
1717572052.552421,39.000000,1.000000,4347.635742,4369.268555,4349.426758,4379.030762,4357.179688,4354.724609,4354.698242,4342.835449,4321.595215,4251.052246,4401.877930,4478.054199,4398.857422,4400.716309,1609.411743,0.000000,4.000000,,,,0.000000,4.000000,4.000000,4.000000,4.000000,4.000000,4.000000,4.000000,4.000000,4.000000,4.000000,4.000000,4.000000,4.000000,4.000000,100.000000,,,,,,,,,,,,,,,,,,,,,,,,,,,,,,,,,,,,,,,,,,,,,,,,,,,,,,,,,,,,,,,,,,,,,,,,,,,,,,,,,,,,,,,,,,,,,,,,,,,,,,,,,,,,,,,,,,,,,,,,,,,,,,,,,,,,,,,,,,,,,,,
1717572052.560229,40.000000,1.000000,4348.454102,4369.321289,4350.060547,4379.879395,4357.948730,4355.852051,4355.686035,4343.318359,4322.315430,4252.602051,4403.250488,4479.381836,4400.565430,4401.719238,1430.588257,0.000000,4.000000,,,,0.000000,4.000000,4.000000,4.000000,4.000000,4.000000,4.000000,4.000000,4.000000,4.000000,4.000000,4.000000,4.000000,4.000000,4.000000,100.000000,,,,,,,,,,,,,,,,,10.000000,0.000000,0.416417,-0.526123,-0.436523,-0.599365,1.003418,0.085582,0.063728,-34.075241,-31.268690,27.531746,,,,,,,,,,,,,,,,,,,,,,,,,,,,,,,,,,,,,,,,,,,,,,,,,,,,,,,,,,,,,,,,,,,,,,,,,,,,,,,,,,,,,,,,,,,,,,,,,,,,,,,,,,,,,,,,,,,
1717572052.568037,41.000000,1.000000,4349.272461,4369.374023,4350.693848,4380.727539,4358.717773,4356.979492,4356.674316,4343.800781,4323.035645,4254.151367,4404.623047,4480.708984,4402.273926,4402.722656,1251.764648,0.000000,4.000000,,,,0.000000,4.000000,4.000000,4.000000,4.000000,4.000000,4.000000,4.000000,4.000000,4.000000,4.000000,4.000000,4.000000,4.000000,4.000000,100.000000,,,,,,,,,,,,,,,,,,,,,,,,,,,,,,,,,,,,,,,,,,,,,,,,,,,,,,,,,,,,,,,,,,,,0.000000,0.000000,64.000000,0.102461,1.000000,0.000000,,,,,,,,,,,,,,,,,,,,,,,,,,,,,,,,,,,,,,,,,,,,,,,,,,,,,,,,,,,,,,,,,,,,,,
1717572052.575845,42.000000,1.000000,4350.090332,4369.426758,4351.327148,4381.576172,4359.487305,4358.106934,4357.662109,4344.283691,4323.755859,4255.701172,4405.995605,4482.036133,4403.981934,4403.725586,1072.941162,0.000000,4.000000,,,,0.000000,4.000000,4.000000,4.000000,4.000000,4.000000,4.000000,4.000000,4.000000,4.000000,4.000000,4.000000,4.000000,4.000000,4.000000,100.000000,,,,,,,,,,,,,,,,,,,,,,,,,,,,,,,,,,,,,,,,,,,,,,,,,,,,,,,,,,,,,,,,,,,,,,,,,,,,,,,,,,,,,,,,,,,,,,,,,,,,,,,,,,,,,,,,,,,,,,,,,,,,,,,,,,,,,,,,,,,,,,,
1717572052.583653,43.000000,1.000000,4350.908691,4369.479492,4351.960938,4382.424805,4360.256348,4359.234375,4358.649902,4344.766113,4324.476074,4257.250977,4407.368164,4483.363281,4405.689941,4404.728516,894.117676,0.000000,4.000000,,,,0.000000,4.000000,4.000000,4.000000,4.000000,4.000000,4.000000,4.000000,4.000000,4.000000,4.000000,4.000000,4.000000,4.000000,4.000000,100.000000,,,,,,,,,,,,,,,,,,,,,,,,,,,,,,,,,,,,,,,,,,,,,,,,,,,,,,,,,,,,,,,,,,,,,,,,,,,,,,,,,,,,,,,,,,,,,,,,,,,,,,,,,,,,,,,,,,,,,,,,,,,,,,,,,,,,,,,,,,,,,,,
1717572052.591461,44.000000,1.000000,4351.727051,4369.532227,4352.594238,4383.272949,4361.025879,4360.361816,4359.638184,4345.249023,4325.196289,4258.800781,4408.740723,4484.690918,4407.397949,4405.731445,715.294128,0.000000,4.000000,,,,0.000000,4.000000,4.000000,4.000000,4.000000,4.000000,4.000000,4.000000,4.000000,4.000000,4.000000,4.000000,4.000000,4.000000,4.000000,100.000000,,,,,,,,,,,,,,,,,11.000000,0.000000,0.416417,-0.526123,-0.436523,-0.599365,1.003418,0.085582,0.063728,-33.995598,-31.331421,27.807411,,,,,,,,,,,,,,,,,,,,,,,,,,,,,,,,,,,,,,,,,,,,,,,,,,,,,,,,,,,,,,,,,,,,,,,,,,,,,,,,,,,,,,,,,,,,,,,,,,,,,,,,,,,,,,,,,,,
1717572052.599269,45.000000,1.000000,4352.545410,4369.585449,4353.227539,4384.121582,4361.794922,4361.489258,4360.625977,4345.731445,4325.916504,4260.350586,4410.113281,4486.018066,4409.106445,4406.734375,536.470581,0.000000,4.000000,,,,0.000000,4.000000,4.000000,4.000000,4.000000,4.000000,4.000000,4.000000,4.000000,4.000000,4.000000,4.000000,4.000000,4.000000,4.000000,100.000000,,,,,,,,,,,,,,,,,,,,,,,,,,,,,,,,,,,,,,,,,,,,,,,,,,,,,,,,,,,,,,,,,,,,0.000000,0.000000,64.000000,0.102461,1.000000,0.000000,,,,,,,,,,,,,,,,,,,,,,,,,,,,,,,,,,,,,,,,,,,,,,,,,,,,,,,,,,,,,,,,,,,,,,
1717572052.607077,46.000000,1.000000,4353.363281,4369.638184,4353.861328,4384.969727,4362.563965,4362.616699,4361.613770,4346.214355,4326.636719,4261.900391,4411.485840,4487.345215,4410.814453,4407.737793,357.647064,0.000000,4.000000,,,,0.000000,4.000000,4.000000,4.000000,4.000000,4.000000,4.000000,4.000000,4.000000,4.000000,4.000000,4.000000,4.000000,4.000000,4.000000,100.000000,,,,,,,,,,,,,,,,,,,,,,,,,,,,,,,,,,,,,,,,,,,,,,,,,,,,,,,,,,,,,,,,,,,,,,,,,,,,,,,,,,,,,,,,,,,,,,,,,,,,,,,,,,,,,,,,,,,,,,,,,,,,,,,,,,,,,,,,,,,,,,,
1717572052.614885,47.000000,1.000000,4354.181641,4369.690918,4354.494629,4385.818359,4363.333496,4363.744141,4362.602051,4346.696777,4327.356934,4263.450195,4412.858398,4488.672852,4412.522461,4408.740723,178.823532,0.000000,4.000000,,,,0.000000,4.000000,4.000000,4.000000,4.000000,4.000000,4.000000,4.000000,4.000000,4.000000,4.000000,4.000000,4.000000,4.000000,4.000000,100.000000,,,,,,,,,,,,,,,,,,,,,,,,,,,,,,,,,,,,,,,,,,,,,,,,,,,,,,,,,,,,,,,,,,,,,,,,,,,,,,,,,,,,,,,,,,,,,,,,,,,,,,,,,,,,,,,,,,,,,,,,,,,,,,,,,,,,,,,,,,,,,,,
1717572052.622693,48.000000,0.000000,4355.000000,4369.743652,4355.128418,4386.666504,4364.102539,4364.871582,4363.589844,4347.179688,4328.077148,4265.000000,4414.230957,4490.000000,4414.230957,4409.743652,0.000000,0.000000,4.000000,,,,0.000000,4.000000,4.000000,4.000000,4.000000,4.000000,4.000000,4.000000,4.000000,4.000000,4.000000,4.000000,4.000000,4.000000,4.000000,100.000000,,,,,,,,,,,,,,,,,12.000000,0.000000,0.416481,-0.526123,-0.436462,-0.599365,0.995605,0.082652,0.057868,-34.151379,-31.000496,27.936325,,,,,,,,,,,,,,,,,,,,,,,,,,,,,,,,,,,,,,,,,,,,,,,,,,,,,,,,,,,,,,,,,,,,,,,,,,,,,,,,,,,,,,,,,,,,,,,,,,,,,,,,,,,,,,,,,,,
1717572052.630501,49.000000,0.000000,4348.589844,4362.563965,4351.282227,4375.641113,4358.589844,4359.230957,4356.153809,4343.333496,4323.974121,4264.615234,4416.153809,4482.948730,4408.205078,4408.333496,0.000000,0.000000,4.000000,,,,0.000000,4.000000,4.000000,4.000000,4.000000,4.000000,4.000000,4.000000,4.000000,4.000000,4.000000,4.000000,4.000000,4.000000,4.000000,100.000000,,,,,,,,,,,,,,,,,,,,,,,,,,,,,1.000000,0.000000,0.000000,,,,,,,,,,,,,,,,,,,,,,,,,,,,,,,,,,,,,0.000000,0.000000,64.000000,0.135067,1.000000,0.000000,7.255209,1.223323,1.044205,0.939276,0.178553,9.340337,1.285407,0.635402,0.378064,0.182975,3.942093,1.971780,1.994827,1.847506,0.366504,5.856139,1.467021,1.724915,1.552312,0.347290,0.924101,1.294773,1.459765,1.151008,0.206455,1.241421,1.105640,1.116390,1.009439,0.213054,2.104363,1.649295,1.126918,1.169007,0.298122,1.511080,1.152309,0.977037,0.882341,0.249224,4.633999,2.107046,2.283917,1.609587,0.472079,6.401779,3.653581,3.332691,2.188036,0.592090,3.126282,2.172209,3.167109,3.162060,0.631309,8.623833,2.739279,3.083292,2.955873,0.629416,6.969503,6.310527,5.678782,4.042045,0.737816,7.066579,2.759756,3.312248,3.129416,0.602446
1717572052.638309,50.000000,0.000000,4339.743652,4357.563965,4343.461426,4362.692383,4351.794922,4359.487305,4358.589844,4343.205078,4320.256348,4260.769043,4408.077148,4474.358887,4406.922852,4404.102539,0.000000,0.000000,4.000000,,,,0.000000,4.000000,4.000000,4.000000,4.000000,4.000000,4.000000,4.000000,4.000000,4.000000,4.000000,4.000000,4.000000,4.000000,4.000000,100.000000,,,,,,,,,,,,,,,,,,,,,,,,,,,,,,,,,,,,,,,,,,,,,,,,,,,,,,,,,,,,,,,,,,,,,,,,,,,,,,,,,,,,,,,,,,,,,,,,,,,,,,,,,,,,,,,,,,,,,,,,,,,,,,,,,,,,,,,,,,,,,,,
1717572052.646117,51.000000,0.000000,4336.538574,4350.769043,4340.000000,4359.102539,4351.282227,4360.128418,4360.769043,4344.487305,4318.589844,4261.025879,4400.769043,4471.666504,4402.820313,4395.641113,0.000000,0.000000,4.000000,,,,0.000000,4.000000,4.000000,4.000000,4.000000,4.000000,4.000000,4.000000,4.000000,4.000000,4.000000,4.000000,4.000000,4.000000,4.000000,100.000000,,,,,,,,,,,,,,,,,,,,,,,,,,,,,,,,,,,,,,,,,,,,,,,,,,,,,,,,,,,,,,,,,,,,,,,,,,,,,,,,,,,,,,,,,,,,,,,,,,,,,,,,,,,,,,,,,,,,,,,,,,,,,,,,,,,,,,,,,,,,,,,
1717572052.653825,52.000000,0.000000,4336.922852,4350.000000,4341.282227,4358.077148,4355.384766,4362.051270,4361.153809,4348.461426,4327.307617,4265.769043,4405.769043,4472.307617,4398.205078,4393.589844,0.000000,0.000000,4.000000,,,,0.000000,4.000000,4.000000,4.000000,4.000000,4.000000,4.000000,4.000000,4.000000,4.000000,4.000000,4.000000,4.000000,4.000000,4.000000,100.000000,,,,,,,,,,,,,,,,,13.000000,1.000000,0.416431,-0.526245,-0.436279,-0.599426,0.992919,0.084117,0.062263,-34.280151,-30.940351,27.792032,,,,,,,,,,,,,,,,,,,,,,,,,,,,,,,,,,,,,,,,,,,,,,,,,,,,,,,,,,,,,,,,,,,,,,,,,,,,,,,,,,,,,,,,,,,,,,,,,,,,,,,,,,,,,,,,,,,
1717572052.661733,53.000000,1.000000,4337.354492,4350.528320,4341.532227,4358.349121,4355.256348,4361.457031,4360.443848,4348.302246,4327.029297,4266.185059,4406.407227,4472.767578,4398.342773,4394.062012,165.609756,0.000000,4.000000,,,,0.000000,4.000000,4.000000,4.000000,4.000000,4.000000,4.000000,4.000000,4.000000,4.000000,4.000000,4.000000,4.000000,4.000000,4.000000,100.000000,,,,,,,,,,,,,,,,,,,,,,,,,,,,,,,,,,,,,,,,,,,,,,,,,,,,,,,,,,,,,,,,,,,,0.000000,0.000000,64.000000,0.135067,1.000000,0.000000,,,,,,,,,,,,,,,,,,,,,,,,,,,,,,,,,,,,,,,,,,,,,,,,,,,,,,,,,,,,,,,,,,,,,,
1717572052.669541,54.000000,1.000000,4337.786133,4351.057129,4341.782227,4358.621094,4355.128418,4360.863281,4359.734375,4348.142578,4326.750977,4266.601074,4407.044922,4473.227051,4398.480469,4394.534180,331.219513,0.000000,4.000000,,,,0.000000,4.000000,4.000000,4.000000,4.000000,4.000000,4.000000,4.000000,4.000000,4.000000,4.000000,4.000000,4.000000,4.000000,4.000000,100.000000,,,,,,,,,,,,,,,,,,,,,,,,,,,,,,,,,,,,,,,,,,,,,,,,,,,,,,,,,,,,,,,,,,,,,,,,,,,,,,,,,,,,,,,,,,,,,,,,,,,,,,,,,,,,,,,,,,,,,,,,,,,,,,,,,,,,,,,,,,,,,,,
1717572052.677349,55.000000,1.000000,4338.217773,4351.585449,4342.032715,4358.893066,4355.000000,4360.269043,4359.024414,4347.982910,4326.472656,4267.017090,4407.683105,4473.686523,4398.617676,4395.006348,496.829254,0.000000,4.000000,,,,0.000000,4.000000,4.000000,4.000000,4.000000,4.000000,4.000000,4.000000,4.000000,4.000000,4.000000,4.000000,4.000000,4.000000,4.000000,100.000000,,,,,,,,,,,,,,,,,,,,,,,,,,,,,,,,,,,,,,,,,,,,,,,,,,,,,,,,,,,,,,,,,,,,,,,,,,,,,,,,,,,,,,,,,,,,,,,,,,,,,,,,,,,,,,,,,,,,,,,,,,,,,,,,,,,,,,,,,,,,,,,
1717572052.685157,56.000000,1.000000,4338.648926,4352.113770,4342.282715,4359.165039,4354.871582,4359.674805,4358.314453,4347.823730,4326.194336,4267.432617,4408.320801,4474.146484,4398.755371,4395.478516,662.439026,0.000000,4.000000,,,,0.000000,4.000000,4.000000,4.000000,4.000000,4.000000,4.000000,4.000000,4.000000,4.000000,4.000000,4.000000,4.000000,4.000000,4.000000,100.000000,,,,,,,,,,,,,,,,,14.000000,0.000000,0.416380,-0.526367,-0.436096,-0.599487,0.990233,0.085582,0.066659,-34.408920,-30.880209,27.647739,,,,,,,,,,,,,,,,,,,,,,,,,,,,,,,,,,,,,,,,,,,,,,,,,,,,,,,,,,,,,,,,,,,,,,,,,,,,,,,,,,,,,,,,,,,,,,,,,,,,,,,,,,,,,,,,,,,
1717572052.692965,57.000000,1.000000,4339.080566,4352.642090,4342.532715,4359.437012,4354.743652,4359.080566,4357.604980,4347.664063,4325.916016,4267.848633,4408.958496,4474.605957,4398.893066,4395.950684,828.048767,0.000000,4.000000,,,,0.000000,4.000000,4.000000,4.000000,4.000000,4.000000,4.000000,4.000000,4.000000,4.000000,4.000000,4.000000,4.000000,4.000000,4.000000,100.000000,,,,,,,,,,,,,,,,,,,,,,,,,,,,,,,,,,,,,,,,,,,,,,,,,,,,,,,,,,,,,,,,,,,,0.000000,0.000000,64.000000,0.135067,1.000000,0.000000,,,,,,,,,,,,,,,,,,,,,,,,,,,,,,,,,,,,,,,,,,,,,,,,,,,,,,,,,,,,,,,,,,,,,,
1717572052.700773,58.000000,1.000000,4339.512207,4353.170898,4342.783203,4359.708984,4354.615234,4358.486328,4356.895020,4347.504883,4325.637695,4268.264648,4409.596680,4475.065430,4399.030762,4396.422852,993.658508,0.000000,4.000000,,,,0.000000,4.000000,4.000000,4.000000,4.000000,4.000000,4.000000,4.000000,4.000000,4.000000,4.000000,4.000000,4.000000,4.000000,4.000000,100.000000,,,,,,,,,,,,,,,,,,,,,,,,,,,,,,,,,,,,,,,,,,,,,,,,,,,,,,,,,,,,,,,,,,,,,,,,,,,,,,,,,,,,,,,,,,,,,,,,,,,,,,,,,,,,,,,,,,,,,,,,,,,,,,,,,,,,,,,,,,,,,,,
1717572052.708581,59.000000,1.000000,4339.943848,4353.699219,4343.033203,4359.981445,4354.487305,4357.892578,4356.185059,4347.345215,4325.359375,4268.680664,4410.234375,4475.525391,4399.168457,4396.895020,1159.268311,0.000000,4.000000,,,,0.000000,4.000000,4.000000,4.000000,4.000000,4.000000,4.000000,4.000000,4.000000,4.000000,4.000000,4.000000,4.000000,4.000000,4.000000,100.000000,,,,,,,,,,,,,,,,,,,,,,,,,,,,,,,,,,,,,,,,,,,,,,,,,,,,,,,,,,,,,,,,,,,,,,,,,,,,,,,,,,,,,,,,,,,,,,,,,,,,,,,,,,,,,,,,,,,,,,,,,,,,,,,,,,,,,,,,,,,,,,,
1717572052.716389,60.000000,1.000000,4340.375000,4354.227539,4343.283203,4360.253418,4354.358887,4357.298340,4355.475098,4347.185547,4325.081543,4269.096191,4410.872559,4475.984863,4399.305664,4397.367188,1324.878052,0.000000,4.000000,,,,0.000000,4.000000,4.000000,4.000000,4.000000,4.000000,4.000000,4.000000,4.000000,4.000000,4.000000,4.000000,4.000000,4.000000,4.000000,100.000000,,,,,,,,,,,,,,,,,15.000000,1.000000,0.416330,-0.526398,-0.436066,-0.599518,0.992919,0.082896,0.062752,-34.413475,-30.936197,27.707020,,,,,,,,,,,,,,,,,,,,,,,,,,,,,,,,,,,,,,,,,,,,,,,,,,,,,,,,,,,,,,,,,,,,,,,,,,,,,,,,,,,,,,,,,,,,,,,,,,,,,,,,,,,,,,,,,,,
1717572052.724196,61.000000,1.000000,4340.806641,4354.755859,4343.533691,4360.525391,4354.230957,4356.704102,4354.765625,4347.026367,4324.803223,4269.512207,4411.510254,4476.444824,4399.443359,4397.839355,1490.487793,0.000000,4.000000,,,,0.000000,4.000000,4.000000,4.000000,4.000000,4.000000,4.000000,4.000000,4.000000,4.000000,4.000000,4.000000,4.000000,4.000000,4.000000,100.000000,,,,,,,,,,,,,,,,,,,,,,,,,,,,,,,,,,,,,,,,,,,,,,,,,,,,,,,,,,,,,,,,,,,,0.000000,0.000000,64.000000,0.135067,1.000000,0.000000,,,,,,,,,,,,,,,,,,,,,,,,,,,,,,,,,,,,,,,,,,,,,,,,,,,,,,,,,,,,,,,,,,,,,,
1717572052.732004,62.000000,1.000000,4341.238281,4355.284668,4343.783691,4360.797363,4354.102539,4356.109863,4354.055664,4346.866699,4324.524902,4269.928223,4412.148438,4476.904297,4399.581055,4398.311523,1656.097534,0.000000,4.000000,,,,0.000000,4.000000,4.000000,4.000000,4.000000,4.000000,4.000000,4.000000,4.000000,4.000000,4.000000,4.000000,4.000000,4.000000,4.000000,100.000000,,,,,,,,,,,,,,,,,,,,,,,,,,,,,,,,,,,,,,,,,,,,,,,,,,,,,,,,,,,,,,,,,,,,,,,,,,,,,,,,,,,,,,,,,,,,,,,,,,,,,,,,,,,,,,,,,,,,,,,,,,,,,,,,,,,,,,,,,,,,,,,
1717572052.739812,63.000000,1.000000,4341.669922,4355.812988,4344.033691,4361.069336,4353.974121,4355.516113,4353.345703,4346.707520,4324.246582,4270.343750,4412.786133,4477.363770,4399.718750,4398.783691,1821.707275,0.000000,4.000000,,,,0.000000,4.000000,4.000000,4.000000,4.000000,4.000000,4.000000,4.000000,4.000000,4.000000,4.000000,4.000000,4.000000,4.000000,4.000000,100.000000,,,,,,,,,,,,,,,,,,,,,,,,,,,,,,,,,,,,,,,,,,,,,,,,,,,,,,,,,,,,,,,,,,,,,,,,,,,,,,,,,,,,,,,,,,,,,,,,,,,,,,,,,,,,,,,,,,,,,,,,,,,,,,,,,,,,,,,,,,,,,,,
1717572052.747620,64.000000,1.000000,4342.101074,4356.341309,4344.283691,4361.341309,4353.846191,4354.921875,4352.636230,4346.547852,4323.968262,4270.759766,4413.423828,4477.823730,4399.855957,4399.255859,3941.000000,0.000000,4.000000,,,,0.000000,4.000000,4.000000,4.000000,4.000000,4.000000,4.000000,4.000000,4.000000,4.000000,4.000000,4.000000,4.000000,4.000000,4.000000,100.000000,,,,,,,,,,,,,,,,,16.000000,0.000000,0.416279,-0.526428,-0.436035,-0.599548,0.995605,0.080210,0.058845,-34.418030,-30.992188,27.766300,,,,,,,,,,,,,,,,,,,,,,,,,,,,,,,,,,,,,,,,,,,,,,,,,,,,,,,,,,,,,,,,,,,,,,,,,,,,,,,,,,,,,,,,,,,,,,,,,,,,,,,,,,,,,,,,,,,
1717572052.755428,65.000000,1.000000,4342.532715,4356.870117,4344.534180,4361.613281,4353.717773,4354.327637,4351.926270,4346.388184,4323.689941,4271.175781,4414.062012,4478.283203,4399.993652,4399.728027,5497.000000,0.000000,4.000000,,,,0.000000,4.000000,4.000000,4.000000,4.000000,4.000000,4.000000,4.000000,4.000000,4.000000,4.000000,4.000000,4.000000,4.000000,4.000000,100.000000,,,,,,,,,,,,,,,,,,,,,,,,,,,,,1.000000,0.000000,0.000000,,,,,,,,,,,,,,,,,,,,,,,,,,,,,,,,,,,,,0.000000,0.000000,64.000000,0.140249,1.000000,0.000000,8.124496,1.292581,0.960876,0.880497,0.185890,11.232008,1.328998,0.591002,0.446542,0.239781,5.046956,1.987761,1.766764,1.682918,0.364264,8.198121,1.584209,1.601448,1.441733,0.378878,0.878342,1.206188,1.315418,1.037638,0.200789,1.707587,1.190125,1.136913,0.979457,0.223661,2.305018,1.677483,1.032154,1.100828,0.288796,1.992747,1.171721,0.945774,0.854800,0.251350,6.299278,2.295547,2.444156,1.601546,0.494693,8.462662,3.839525,3.481436,2.169760,0.611230,3.450325,2.323023,2.997473,2.990977,0.631907,9.942566,2.892004,2.808149,2.737502,0.620157,6.031800,5.800328,4.897604,3.650160,0.668830,8.591531,2.747524,2.916328,2.869996,0.567041
1717572052.763236,66.000000,1.000000,4342.964355,4357.398438,4344.784180,4361.885742,4353.589844,4353.733398,4351.216309,4346.229004,4323.411621,4271.591797,4414.699707,4478.743164,4400.131348,4400.200195,3841.000000,0.000000,4.000000,,,,0.000000,4.000000,4.000000,4.000000,4.000000,4.000000,4.000000,4.000000,4.000000,4.000000,4.000000,4.000000,4.000000,4.000000,4.000000,100.000000,,,,,,,,,,,,,,,,,,,,,,,,,,,,,,,,,,,,,,,,,,,,,,,,,,,,,,,,,,,,,,,,,,,,,,,,,,,,,,,,,,,,,,,,,,,,,,,,,,,,,,,,,,,,,,,,,,,,,,,,,,,,,,,,,,,,,,,,,,,,,,,
1717572052.771044,67.000000,1.000000,4343.395996,4357.926758,4345.034180,4362.157715,4353.461426,4353.139648,4350.506348,4346.069336,4323.133301,4272.007324,4415.337891,4479.202637,4400.269043,4400.672363,3523.000000,0.000000,4.000000,,,,0.000000,4.000000,4.000000,4.000000,4.000000,4.000000,4.000000,4.000000,4.000000,4.000000,4.000000,4.000000,4.000000,4.000000,4.000000,100.000000,,,,,,,,,,,,,,,,,,,,,,,,,,,,,,,,,,,,,,,,,,,,,,,,,,,,,,,,,,,,,,,,,,,,,,,,,,,,,,,,,,,,,,,,,,,,,,,,,,,,,,,,,,,,,,,,,,,,,,,,,,,,,,,,,,,,,,,,,,,,,,,
1717572052.778852,68.000000,1.000000,4343.827148,4358.455078,4345.284668,4362.429688,4353.333496,4352.545410,4349.796875,4345.910156,4322.854980,4272.423340,4415.975586,4479.662109,4400.406738,4401.144531,5192.000000,0.000000,4.000000,,,,0.000000,4.000000,4.000000,4.000000,4.000000,4.000000,4.000000,4.000000,4.000000,4.000000,4.000000,4.000000,4.000000,4.000000,4.000000,100.000000,,,,,,,,,,,,,,,,,17.000000,1.000000,0.416289,-0.526413,-0.436066,-0.599533,0.991698,0.082896,0.058357,-34.424244,-30.992382,27.788809,,,,,,,,,,,,,,,,,,,,,,,,,,,,,,,,,,,,,,,,,,,,,,,,,,,,,,,,,,,,,,,,,,,,,,,,,,,,,,,,,,,,,,,,,,,,,,,,,,,,,,,,,,,,,,,,,,,
1717572052.786660,69.000000,1.000000,4344.258789,4358.983887,4345.534668,4362.701660,4353.205078,4351.951172,4349.086914,4345.750488,4322.576660,4272.839355,4416.613281,4480.122070,4400.543945,4401.616699,5404.000000,0.000000,4.000000,,,,0.000000,4.000000,4.000000,4.000000,4.000000,4.000000,4.000000,4.000000,4.000000,4.000000,4.000000,4.000000,4.000000,4.000000,4.000000,100.000000,,,,,,,,,,,,,,,,,,,,,,,,,,,,,,,,,,,,,,,,,,,,,,,,,,,,,,,,,,,,,,,,,,,,0.000000,0.000000,64.000000,0.140249,1.000000,0.000000,,,,,,,,,,,,,,,,,,,,,,,,,,,,,,,,,,,,,,,,,,,,,,,,,,,,,,,,,,,,,,,,,,,,,,
1717572052.794468,70.000000,1.000000,4344.690430,4359.512207,4345.784668,4362.973633,4353.077148,4351.356934,4348.376953,4345.590820,4322.298340,4273.255371,4417.251465,4480.581543,4400.681641,4402.088867,5183.000000,0.000000,4.000000,,,,0.000000,4.000000,4.000000,4.000000,4.000000,4.000000,4.000000,4.000000,4.000000,4.000000,4.000000,4.000000,4.000000,4.000000,4.000000,100.000000,,,,,,,,,,,,,,,,,,,,,,,,,,,,,,,,,,,,,,,,,,,,,,,,,,,,,,,,,,,,,,,,,,,,,,,,,,,,,,,,,,,,,,,,,,,,,,,,,,,,,,,,,,,,,,,,,,,,,,,,,,,,,,,,,,,,,,,,,,,,,,,
1717572052.802276,71.000000,1.000000,4345.122070,4360.040527,4346.035156,4363.245605,4352.948730,4350.763184,4347.667480,4345.431641,4322.020020,4273.670898,4417.889160,4481.041504,4400.819336,4402.561035,4672.000000,0.000000,4.000000,,,,0.000000,4.000000,4.000000,4.000000,4.000000,4.000000,4.000000,4.000000,4.000000,4.000000,4.000000,4.000000,4.000000,4.000000,4.000000,100.000000,,,,,,,,,,,,,,,,,,,,,,,,,,,,,,,,,,,,,,,,,,,,,,,,,,,,,,,,,,,,,,,,,,,,,,,,,,,,,,,,,,,,,,,,,,,,,,,,,,,,,,,,,,,,,,,,,,,,,,,,,,,,,,,,,,,,,,,,,,,,,,,
1717572052.810084,72.000000,1.000000,4345.553711,4360.569336,4346.285156,4363.518066,4352.820313,4350.168945,4346.957520,4345.271973,4321.741699,4274.086914,4418.527344,4481.500977,4400.957031,4403.033203,5198.000000,0.000000,4.000000,,,,0.000000,4.000000,4.000000,4.000000,4.000000,4.000000,4.000000,4.000000,4.000000,4.000000,4.000000,4.000000,4.000000,4.000000,4.000000,100.000000,,,,,,,,,,,,,,,,,18.000000,1.000000,0.416298,-0.526398,-0.436096,-0.599518,0.987791,0.085582,0.057868,-34.430462,-30.992579,27.811317,,,,,,,,,,,,,,,,,,,,,,,,,,,,,,,,,,,,,,,,,,,,,,,,,,,,,,,,,,,,,,,,,,,,,,,,,,,,,,,,,,,,,,,,,,,,,,,,,,,,,,,,,,,,,,,,,,,
1717572052.817892,73.000000,1.000000,4345.984863,4361.097656,4346.535156,4363.790039,4352.692383,4349.574707,4346.247559,4345.112793,4321.463379,4274.502930,4419.165039,4481.960449,4401.094238,4403.505371,4784.000000,0.000000,4.000000,,,,0.000000,4.000000,4.000000,4.000000,4.000000,4.000000,4.000000,4.000000,4.000000,4.000000,4.000000,4.000000,4.000000,4.000000,4.000000,100.000000,,,,,,,,,,,,,,,,,,,,,,,,,,,,,,,,,,,,,,,,,,,,,,,,,,,,,,,,,,,,,,,,,,,,0.000000,0.000000,64.000000,0.140249,1.000000,0.000000,,,,,,,,,,,,,,,,,,,,,,,,,,,,,,,,,,,,,,,,,,,,,,,,,,,,,,,,,,,,,,,,,,,,,,
1717572052.825700,74.000000,1.000000,4346.416504,4361.625977,4346.785645,4364.062012,4352.563965,4348.980469,4345.537598,4344.953125,4321.185059,4274.918457,4419.803223,4482.420410,4401.231934,4403.977539,6035.000000,0.000000,4.000000,,,,0.000000,4.000000,4.000000,4.000000,4.000000,4.000000,4.000000,4.000000,4.000000,4.000000,4.000000,4.000000,4.000000,4.000000,4.000000,100.000000,,,,,,,,,,,,,,,,,,,,,,,,,,,,,,,,,,,,,,,,,,,,,,,,,,,,,,,,,,,,,,,,,,,,,,,,,,,,,,,,,,,,,,,,,,,,,,,,,,,,,,,,,,,,,,,,,,,,,,,,,,,,,,,,,,,,,,,,,,,,,,,
1717572052.833508,75.000000,1.000000,4346.848145,4362.154297,4347.035645,4364.333984,4352.436035,4348.386719,4344.828125,4344.793457,4320.906738,4275.334473,4420.440918,4482.879883,4401.369629,4404.449707,5836.000000,0.000000,4.000000,,,,0.000000,4.000000,4.000000,4.000000,4.000000,4.000000,4.000000,4.000000,4.000000,4.000000,4.000000,4.000000,4.000000,4.000000,4.000000,100.000000,,,,,,,,,,,,,,,,,,,,,,,,,,,,,,,,,,,,,,,,,,,,,,,,,,,,,,,,,,,,,,,,,,,,,,,,,,,,,,,,,,,,,,,,,,,,,,,,,,,,,,,,,,,,,,,,,,,,,,,,,,,,,,,,,,,,,,,,,,,,,,,
1717572052.841316,76.000000,1.000000,4347.279785,4362.683105,4347.285645,4364.605957,4352.307617,4347.792480,4344.118164,4344.634277,4320.628418,4275.750488,4421.078613,4483.339355,4401.507324,4404.921875,6698.000000,0.000000,4.000000,,,,0.000000,4.000000,4.000000,4.000000,4.000000,4.000000,4.000000,4.000000,4.000000,4.000000,4.000000,4.000000,4.000000,4.000000,4.000000,100.000000,,,,,,,,,,,,,,,,,19.000000,1.000000,0.416307,-0.526382,-0.436127,-0.599503,0.983885,0.088268,0.057380,-34.436676,-30.992773,27.833826,,,,,,,,,,,,,,,,,,,,,,,,,,,,,,,,,,,,,,,,,,,,,,,,,,,,,,,,,,,,,,,,,,,,,,,,,,,,,,,,,,,,,,,,,,,,,,,,,,,,,,,,,,,,,,,,,,,
1717572052.849124,77.000000,1.000000,4347.710938,4363.211426,4347.536133,4364.877930,4352.179688,4347.198242,4343.408203,4344.474609,4320.350098,4276.166504,4421.716797,4483.799316,4401.645020,4405.394043,6768.000000,0.000000,4.000000,,,,0.000000,4.000000,4.000000,4.000000,4.000000,4.000000,4.000000,4.000000,4.000000,4.000000,4.000000,4.000000,4.000000,4.000000,4.000000,100.000000,,,,,,,,,,,,,,,,,,,,,,,,,,,,,,,,,,,,,,,,,,,,,,,,,,,,,,,,,,,,,,,,,,,,0.000000,0.000000,64.000000,0.140249,1.000000,0.000000,,,,,,,,,,,,,,,,,,,,,,,,,,,,,,,,,,,,,,,,,,,,,,,,,,,,,,,,,,,,,,,,,,,,,,
1717572052.856932,78.000000,1.000000,4348.142578,4363.739746,4347.786133,4365.149902,4352.051270,4346.604004,4342.698730,4344.315430,4320.071777,4276.582031,4422.354492,4484.258789,4401.782227,4405.866211,6080.000000,0.000000,4.000000,,,,0.000000,4.000000,4.000000,4.000000,4.000000,4.000000,4.000000,4.000000,4.000000,4.000000,4.000000,4.000000,4.000000,4.000000,4.000000,100.000000,,,,,,,,,,,,,,,,,,,,,,,,,,,,,,,,,,,,,,,,,,,,,,,,,,,,,,,,,,,,,,,,,,,,,,,,,,,,,,,,,,,,,,,,,,,,,,,,,,,,,,,,,,,,,,,,,,,,,,,,,,,,,,,,,,,,,,,,,,,,,,,
1717572052.864740,79.000000,1.000000,4348.574219,4364.268066,4348.036133,4365.422363,4351.922852,4346.009766,4341.988770,4344.155762,4319.793457,4276.998047,4422.992676,4484.718750,4401.919922,4406.338379,5811.000000,0.000000,4.000000,,,,0.000000,4.000000,4.000000,4.000000,4.000000,4.000000,4.000000,4.000000,4.000000,4.000000,4.000000,4.000000,4.000000,4.000000,4.000000,100.000000,,,,,,,,,,,,,,,,,,,,,,,,,,,,,,,,,,,,,,,,,,,,,,,,,,,,,,,,,,,,,,,,,,,,,,,,,,,,,,,,,,,,,,,,,,,,,,,,,,,,,,,,,,,,,,,,,,,,,,,,,,,,,,,,,,,,,,,,,,,,,,,
1717572052.872548,80.000000,1.000000,4349.005859,4364.796875,4348.286621,4365.694336,4351.794922,4345.416016,4341.278809,4343.996094,4319.515137,4277.414063,4423.630371,4485.178223,4402.057617,4406.810547,4637.073242,0.000000,4.000000,,,,0.000000,4.000000,4.000000,4.000000,4.000000,4.000000,4.000000,4.000000,4.000000,4.000000,4.000000,4.000000,4.000000,4.000000,4.000000,100.000000,,,,,,,,,,,,,,,,,20.000000,0.000000,0.416317,-0.526367,-0.436157,-0.599487,0.979978,0.090953,0.056892,-34.442890,-30.992970,27.856337,,,,,,,,,,,,,,,,,,,,,,,,,,,,,,,,,,,,,,,,,,,,,,,,,,,,,,,,,,,,,,,,,,,,,,,,,,,,,,,,,,,,,,,,,,,,,,,,,,,,,,,,,,,,,,,,,,,
1717572052.880356,81.000000,1.000000,4349.437012,4365.325195,4348.536621,4365.966309,4351.666504,4344.821777,4340.569336,4343.836914,4319.236816,4277.830078,4424.268066,4485.637695,4402.195313,4407.282715,4802.683105,0.000000,4.000000,,,,0.000000,4.000000,4.000000,4.000000,4.000000,4.000000,4.000000,4.000000,4.000000,4.000000,4.000000,4.000000,4.000000,4.000000,4.000000,100.000000,-1.000000,25.000000,1.000000,4.000000,1.000000,3.000000,3.000000,3.000000,3.000000,1.000000,3.000000,1.000000,1.000000,3.000000,1.000000,1.000000,,,,,,,,,,,,,1.000000,0.000000,0.000000,,,,,,,,,,,,,,,,,,,,,,,,,,,,,,,,,,,,,0.000000,0.000000,64.000000,0.030378,1.000000,0.000000,8.591920,1.224091,0.781980,0.727782,0.176048,12.511649,1.262920,0.510088,0.491557,0.292637,5.951866,1.798558,1.369917,1.342660,0.327932,10.110622,1.580267,1.345698,1.179760,0.380804,0.814549,0.999701,1.040948,0.813469,0.174788,2.159379,1.180073,1.058396,0.844662,0.212973,2.346322,1.534192,0.858227,0.911488,0.251809,2.446126,1.101423,0.840668,0.732490,0.228807,7.972184,2.433090,2.435258,1.450180,0.480335,10.559890,3.862343,3.400875,1.969298,0.590426,3.919600,2.264537,2.547527,2.483907,0.570413,10.873703,2.722245,2.254435,2.219119,0.551237,5.763142,4.836480,3.766241,2.872858,0.552243,9.745008,2.431788,2.232290,2.294863,0.477824
1717572052.888164,82.000000,1.000000,4349.868652,4365.853516,4348.786621,4366.238281,4351.538574,4344.227539,4339.859375,4343.677246,4318.958496,4278.245605,4424.906250,4486.097656,4402.332520,4407.754883,4968.292480,0.000000,4.000000,,,,0.000000,4.000000,4.000000,4.000000,4.000000,4.000000,4.000000,4.000000,4.000000,4.000000,4.000000,4.000000,4.000000,4.000000,4.000000,100.000000,,,,,,,,,,,,,,,,,,,,,,,,,,,,,,,,,,,,,,,,,,,,,,,,,,,,,,,,,,,,,,,,,,,,,,,,,,,,,,,,,,,,,,,,,,,,,,,,,,,,,,,,,,,,,,,,,,,,,,,,,,,,,,,,,,,,,,,,,,,,,,,
1717572052.895972,83.000000,1.000000,4350.300293,4366.382324,4349.037109,4366.510254,4351.410156,4343.633301,4339.149414,4343.518066,4318.680664,4278.661621,4425.543945,4486.557129,4402.470215,4408.227051,5133.902344,0.000000,4.000000,,,,0.000000,4.000000,4.000000,4.000000,4.000000,4.000000,4.000000,4.000000,4.000000,4.000000,4.000000,4.000000,4.000000,4.000000,4.000000,100.000000,,,,,,,,,,,,,,,,,,,,,,,,,,,,,,,,,,,,,,,,,,,,,,,,,,,,,,,,,,,,,,,,,,,,,,,,,,,,,,,,,,,,,,,,,,,,,,,,,,,,,,,,,,,,,,,,,,,,,,,,,,,,,,,,,,,,,,,,,,,,,,,
1717572052.903780,84.000000,1.000000,4350.731934,4366.910645,4349.287109,4366.782227,4351.282227,4343.039551,4338.439453,4343.358398,4318.402344,4279.077637,4426.182129,4487.017090,4402.607910,4408.699219,5299.512207,0.000000,4.000000,,,,0.000000,4.000000,4.000000,4.000000,4.000000,4.000000,4.000000,4.000000,4.000000,4.000000,4.000000,4.000000,4.000000,4.000000,4.000000,100.000000,,,,,,,,,,,,,,,,,21.000000,1.000000,0.416534,-0.526286,-0.436076,-0.599467,0.987629,0.086233,0.063240,-34.417019,-30.982092,27.861124,,,,,,,,,,,,,,,,,,,,,,,,,,,,,,,,,,,,,,,,,,,,,,,,,,,,,,,,,,,,,,,,,,,,,,,,,,,,,,,,,,,,,,,,,,,,,,,,,,,,,,,,,,,,,,,,,,,
1717572052.911588,85.000000,1.000000,4351.163086,4367.438965,4349.537109,4367.054199,4351.153809,4342.445313,4337.729980,4343.198730,4318.124023,4279.493652,4426.819824,4487.476563,4402.745605,4409.171387,5465.122070,0.000000,4.000000,,,,0.000000,4.000000,4.000000,4.000000,4.000000,4.000000,4.000000,4.000000,4.000000,4.000000,4.000000,4.000000,4.000000,4.000000,4.000000,100.000000,,,,,,,,,,,,,,,,,,,,,,,,,,,,,,,,,,,,,,,,,,,,,,,,,,,,,,,,,,,,,,,,,,,,0.000000,0.000000,64.000000,0.030378,1.000000,0.000000,,,,,,,,,,,,,,,,,,,,,,,,,,,,,,,,,,,,,,,,,,,,,,,,,,,,,,,,,,,,,,,,,,,,,,
1717572052.919396,86.000000,1.000000,4351.594727,4367.967285,4349.787598,4367.326660,4351.025879,4341.851074,4337.020020,4343.039551,4317.845703,4279.909180,4427.458008,4487.936035,4402.882813,4409.643555,5630.731934,0.000000,4.000000,,,,0.000000,4.000000,4.000000,4.000000,4.000000,4.000000,4.000000,4.000000,4.000000,4.000000,4.000000,4.000000,4.000000,4.000000,4.000000,100.000000,,,,,,,,,,,,,,,,,,,,,,,,,,,,,,,,,,,,,,,,,,,,,,,,,,,,,,,,,,,,,,,,,,,,,,,,,,,,,,,,,,,,,,,,,,,,,,,,,,,,,,,,,,,,,,,,,,,,,,,,,,,,,,,,,,,,,,,,,,,,,,,
1717572052.927204,87.000000,1.000000,4352.026367,4368.496094,4350.037598,4367.598633,4350.897461,4341.256836,4336.310059,4342.879883,4317.567383,4280.325195,4428.095703,4488.395996,4403.020508,4410.115723,5796.341309,0.000000,4.000000,,,,0.000000,4.000000,4.000000,4.000000,4.000000,4.000000,4.000000,4.000000,4.000000,4.000000,4.000000,4.000000,4.000000,4.000000,4.000000,100.000000,,,,,,,,,,,,,,,,,,,,,,,,,,,,,,,,,,,,,,,,,,,,,,,,,,,,,,,,,,,,,,,,,,,,,,,,,,,,,,,,,,,,,,,,,,,,,,,,,,,,,,,,,,,,,,,,,,,,,,,,,,,,,,,,,,,,,,,,,,,,,,,
1717572052.935012,88.000000,1.000000,4352.458008,4369.024414,4350.287598,4367.870605,4350.769043,4340.663086,4335.600586,4342.720215,4317.289063,4280.741211,4428.733398,4488.855469,4403.158203,4410.587891,5961.951172,0.000000,4.000000,,,,0.000000,4.000000,4.000000,4.000000,4.000000,4.000000,4.000000,4.000000,4.000000,4.000000,4.000000,4.000000,4.000000,4.000000,4.000000,100.000000,,,,,,,,,,,,,,,,,22.000000,1.000000,0.416751,-0.526204,-0.435994,-0.599447,0.995279,0.081512,0.069589,-34.391144,-30.971216,27.865913,,,,,,,,,,,,,,,,,,,,,,,,,,,,,,,,,,,,,,,,,,,,,,,,,,,,,,,,,,,,,,,,,,,,,,,,,,,,,,,,,,,,,,,,,,,,,,,,,,,,,,,,,,,,,,,,,,,
1717572052.942820,89.000000,1.000000,4352.889160,4369.552734,4350.537598,4368.142578,4350.641113,4340.068848,4334.890625,4342.561035,4317.010742,4281.156738,4429.371582,4489.315430,4403.295898,4411.060059,6127.561035,0.000000,4.000000,,,,0.000000,4.000000,4.000000,4.000000,4.000000,4.000000,4.000000,4.000000,4.000000,4.000000,4.000000,4.000000,4.000000,4.000000,4.000000,100.000000,,,,,,,,,,,,,,,,,,,,,,,,,,,,,,,,,,,,,,,,,,,,,,,,,,,,,,,,,,,,,,,,,,,,0.000000,0.000000,64.000000,0.030378,1.000000,0.000000,,,,,,,,,,,,,,,,,,,,,,,,,,,,,,,,,,,,,,,,,,,,,,,,,,,,,,,,,,,,,,,,,,,,,,
1717572052.950628,90.000000,1.000000,4353.320801,4370.081543,4350.788086,4368.414551,4350.512695,4339.474609,4334.180664,4342.401367,4316.732422,4281.572754,4430.009277,4489.774902,4403.433594,4411.532227,6293.170898,0.000000,4.000000,,,,0.000000,4.000000,4.000000,4.000000,4.000000,4.000000,4.000000,4.000000,4.000000,4.000000,4.000000,4.000000,4.000000,4.000000,4.000000,100.000000,,,,,,,,,,,,,,,,,,,,,,,,,,,,,,,,,,,,,,,,,,,,,,,,,,,,,,,,,,,,,,,,,,,,,,,,,,,,,,,,,,,,,,,,,,,,,,,,,,,,,,,,,,,,,,,,,,,,,,,,,,,,,,,,,,,,,,,,,,,,,,,
1717572052.958436,91.000000,1.000000,4353.752441,4370.609863,4351.038086,4368.686523,4350.384766,4338.880371,4333.470703,4342.242188,4316.454102,4281.988770,4430.647461,4490.234375,4403.570801,4412.004395,6458.780273,0.000000,4.000000,,,,0.000000,4.000000,4.000000,4.000000,4.000000,4.000000,4.000000,4.000000,4.000000,4.000000,4.000000,4.000000,4.000000,4.000000,4.000000,100.000000,,,,,,,,,,,,,,,,,,,,,,,,,,,,,,,,,,,,,,,,,,,,,,,,,,,,,,,,,,,,,,,,,,,,,,,,,,,,,,,,,,,,,,,,,,,,,,,,,,,,,,,,,,,,,,,,,,,,,,,,,,,,,,,,,,,,,,,,,,,,,,,
1717572052.966244,92.000000,1.000000,4354.184082,4371.138184,4351.288086,4368.958496,4350.256348,4338.286621,4332.761230,4342.082520,4316.175781,4282.404785,4431.285156,4490.694336,4403.708496,4412.476563,6624.390137,0.000000,4.000000,,,,0.000000,4.000000,4.000000,4.000000,4.000000,4.000000,4.000000,4.000000,4.000000,4.000000,4.000000,4.000000,4.000000,4.000000,4.000000,100.000000,,,,,,,,,,,,,,,,,23.000000,0.000000,0.416968,-0.526123,-0.435913,-0.599426,1.002930,0.076792,0.075937,-34.365269,-30.960339,27.870703,,,,,,,,,,,,,,,,,,,,,,,,,,,,,,,,,,,,,,,,,,,,,,,,,,,,,,,,,,,,,,,,,,,,,,,,,,,,,,,,,,,,,,,,,,,,,,,,,,,,,,,,,,,,,,,,,,,
1717572052.974052,93.000000,0.000000,4354.615234,4371.666504,4351.538574,4369.230957,4350.128418,4337.692383,4332.051270,4341.922852,4315.897461,4282.820313,4431.922852,4491.153809,4403.846191,4412.948730,6790.000000,0.000000,4.000000,,,,0.000000,4.000000,4.000000,4.000000,4.000000,4.000000,4.000000,4.000000,4.000000,4.000000,4.000000,4.000000,4.000000,4.000000,4.000000,100.000000,,,,,,,,,,,,,,,,,,,,,,,,,,,,,,,,,,,,,,,,,,,,,,,,,,,,,,,,,,,,,,,,,,,,0.000000,0.000000,64.000000,0.030378,1.000000,0.000000,,,,,,,,,,,,,,,,,,,,,,,,,,,,,,,,,,,,,,,,,,,,,,,,,,,,,,,,,,,,,,,,,,,,,,
1717572052.981859,94.000000,0.000000,4365.769043,4382.436035,4364.743652,4385.384766,4368.077148,4357.307617,4349.871582,4365.384766,4340.769043,4304.230957,4453.974121,4514.230957,4423.974121,4435.769043,6085.000000,0.000000,4.000000,,,,0.000000,4.000000,4.000000,4.000000,4.000000,4.000000,4.000000,4.000000,4.000000,4.000000,4.000000,4.000000,4.000000,4.000000,4.000000,100.000000,,,,,,,,,,,,,,,,,,,,,,,,,,,,,,,,,,,,,,,,,,,,,,,,,,,,,,,,,,,,,,,,,,,,,,,,,,,,,,,,,,,,,,,,,,,,,,,,,,,,,,,,,,,,,,,,,,,,,,,,,,,,,,,,,,,,,,,,,,,,,,,
1717572052.989667,95.000000,0.000000,4354.871582,4367.436035,4355.769043,4370.256348,4355.256348,4345.641113,4338.589844,4356.538574,4332.179688,4298.589844,4439.615234,4501.666504,4402.179688,4424.487305,5876.000000,0.000000,4.000000,,,,0.000000,4.000000,4.000000,4.000000,4.000000,4.000000,4.000000,4.000000,4.000000,4.000000,4.000000,4.000000,4.000000,4.000000,4.000000,100.000000,,,,,,,,,,,,,,,,,,,,,,,,,,,,,,,,,,,,,,,,,,,,,,,,,,,,,,,,,,,,,,,,,,,,,,,,,,,,,,,,,,,,,,,,,,,,,,,,,,,,,,,,,,,,,,,,,,,,,,,,,,,,,,,,,,,,,,,,,,,,,,,
1717572052.997475,96.000000,0.000000,4353.846191,4361.922852,4353.717773,4364.871582,4350.641113,4340.000000,4336.410156,4347.948730,4327.563965,4294.358887,4435.256348,4496.153809,4398.461426,4416.153809,6740.000000,0.000000,4.000000,,,,0.000000,4.000000,4.000000,4.000000,4.000000,4.000000,4.000000,4.000000,4.000000,4.000000,4.000000,4.000000,4.000000,4.000000,4.000000,100.000000,,,,,,,,,,,,,,,,,,,,,,,,,,,,,,,,,,,,,,,,,,,,,,,,,,,,,,,,,,,,,,,,,,,,,,,,,,,,,,,,,,,,,,,,,,,,,,,,,,,,,,,,,,,,,,,,,,,,,,,,,,,,,,,,,,,,,,,,,,,,,,,
1717572053.005283,97.000000,0.000000,4372.307617,4379.358887,4373.717773,4388.077148,4368.589844,4362.563965,4357.948730,4369.615234,4351.025879,4316.282227,4463.077148,4525.256348,4435.000000,4442.179688,6790.000000,0.000000,4.000000,,,,0.000000,4.000000,4.000000,4.000000,4.000000,4.000000,4.000000,4.000000,4.000000,4.000000,4.000000,4.000000,4.000000,4.000000,4.000000,100.000000,,,,,,,,,,,,,,,,,,,,,,,,,,,,,1.000000,0.000000,0.000000,,,,,,,,,,,,,,,,,,,,,,,,,,,,,,,,,,,,,0.000000,0.000000,1.000000,0.000000,128.000000,0.133924,8.196154,1.044210,0.557367,0.526938,0.149714,12.551444,1.107049,0.406154,0.494625,0.321599,6.204918,1.468096,0.922319,0.934041,0.267602,10.805989,1.439719,1.007432,0.844043,0.350458,0.699090,0.731244,0.712205,0.546839,0.135208,2.462716,1.078090,0.899722,0.647663,0.182518,2.205697,1.249749,0.638394,0.653949,0.195311,2.733982,0.959147,0.674000,0.547923,0.185042,9.190916,2.496552,2.249558,1.202942,0.431498,12.082397,3.759540,3.119547,1.651919,0.534098,4.084335,2.011965,1.938585,1.796845,0.458068,10.621369,2.299847,1.578076,1.558472,0.436886,5.299723,3.565942,2.548227,1.938057,0.403365,9.765965,1.928513,1.464847,1.582354,0.357810
1717572053.013091,98.000000,0.000000,4367.307617,4378.846191,4369.871582,4386.538574,4363.846191,4357.307617,4352.820313,4370.000000,4349.358887,4316.025879,4456.794922,4519.615234,4428.589844,4441.153809,6085.000000,0.000000,4.000000,,,,0.000000,4.000000,4.000000,4.000000,4.000000,4.000000,4.000000,4.000000,4.000000,4.000000,4.000000,4.000000,4.000000,4.000000,4.000000,100.000000,,,,,,,,,,,,,,,,,,,,,,,,,,,,,,,,,,,,,,,,,,,,,,,,,,,,,,,,,,,,,,,,,,,,,,,,,,,,,,,,,,,,,,,,,,,,,,,,,,,,,,,,,,,,,,,,,,,,,,,,,,,,,,,,,,,,,,,,,,,,,,,
1717572053.020899,99.000000,0.000000,4353.077148,4366.538574,4353.205078,4368.461426,4348.589844,4336.282227,4335.897461,4353.717773,4328.717773,4298.974121,4433.461426,4494.871582,4398.461426,4417.820313,5876.000000,0.000000,4.000000,,,,0.000000,4.000000,4.000000,4.000000,4.000000,4.000000,4.000000,4.000000,4.000000,4.000000,4.000000,4.000000,4.000000,4.000000,4.000000,100.000000,,,,,,,,,,,,,,,,,,,,,,,,,,,,,,,,,,,,,,,,,,,,,,,,,,,,,,,,,,,,,,,,,,,,,,,,,,,,,,,,,,,,,,,,,,,,,,,,,,,,,,,,,,,,,,,,,,,,,,,,,,,,,,,,,,,,,,,,,,,,,,,
1717572053.028707,100.000000,0.000000,4368.589844,4375.897461,4368.461426,4384.358887,4365.384766,4353.717773,4351.538574,4370.897461,4345.897461,4315.512695,4460.000000,4519.743652,4418.589844,4438.077148,6740.000000,0.000000,4.000000,,,,0.000000,4.000000,4.000000,4.000000,4.000000,4.000000,4.000000,4.000000,4.000000,4.000000,4.000000,4.000000,4.000000,4.000000,4.000000,100.000000,,,,,,,,,,,,,,,,,,,,,,,,,,,,,,,,,,,,,,,,,,,,,,,,,,,,,,,,,,,,,,,,,,,,,,,,,,,,,,,,,,,,,,,,,,,,,,,,,,,,,,,,,,,,,,,,,,,,,,,,,,,,,,,,,,,,,,,,,,,,,,,
1717572053.036415,101.000000,0.000000,4381.538574,4382.948730,4383.974121,4401.025879,4375.384766,4369.871582,4362.436035,4382.436035,4361.282227,4330.512695,4482.307617,4543.333496,4440.128418,4462.436035,6790.000000,0.000000,4.000000,,,,0.000000,4.000000,4.000000,4.000000,4.000000,4.000000,4.000000,4.000000,4.000000,4.000000,4.000000,4.000000,4.000000,4.000000,4.000000,100.000000,,,,,,,,,,,,,,,,,,,,,,,,,,,,,,,,,,,,,,,,,,,,,,,,,,,,,,,,,,,,,,,,,,,,0.000000,0.000000,1.000000,0.000000,128.000000,0.133924,,,,,,,,,,,,,,,,,,,,,,,,,,,,,,,,,,,,,,,,,,,,,,,,,,,,,,,,,,,,,,,,,,,,,,
1717572053.044223,102.000000,0.000000,4373.717773,4378.589844,4376.153809,4395.897461,4365.128418,4359.358887,4351.922852,4366.922852,4347.948730,4319.743652,4470.256348,4533.461426,4429.487305,4452.692383,6085.000000,0.000000,4.000000,,,,0.000000,4.000000,4.000000,4.000000,4.000000,4.000000,4.000000,4.000000,4.000000,4.000000,4.000000,4.000000,4.000000,4.000000,4.000000,100.000000,,,,,,,,,,,,,,,,,,,,,,,,,,,,,,,,,,,,,,,,,,,,,,,,,,,,,,,,,,,,,,,,,,,,,,,,,,,,,,,,,,,,,,,,,,,,,,,,,,,,,,,,,,,,,,,,,,,,,,,,,,,,,,,,,,,,,,,,,,,,,,,
1717572053.051931,103.000000,1.000000,4370.256348,4375.512695,4372.222168,4390.854492,4362.008789,4356.153809,4348.675293,4364.572754,4345.790527,4319.038574,4464.251953,4527.521484,4423.782227,4446.602539,6194.166504,0.000000,4.000000,,,,0.000000,4.000000,4.000000,4.000000,4.000000,4.000000,4.000000,4.000000,4.000000,4.000000,4.000000,4.000000,4.000000,4.000000,4.000000,100.000000,,,,,,,,,,,,,,,,,,,,,,,,,,,,,,,,,,,,,,,,,,,,,,,,,,,,,,,,,,,,,,,,,,,,,,,,,,,,,,,,,,,,,,,,,,,,,,,,,,,,,,,,,,,,,,,,,,,,,,,,,,,,,,,,,,,,,,,,,,,,,,,
1717572053.059739,104.000000,1.000000,4366.794922,4372.436035,4368.290527,4385.812012,4358.888672,4352.948730,4345.427246,4362.222168,4343.632324,4318.333496,4458.248047,4521.581055,4418.077148,4440.512695,6303.333496,0.000000,4.000000,,,,0.000000,4.000000,4.000000,4.000000,4.000000,4.000000,4.000000,4.000000,4.000000,4.000000,4.000000,4.000000,4.000000,4.000000,4.000000,100.000000,,,,,,,,,,,,,,,,,,,,,,,,,,,,,,,,,,,,,,,,,,,,,,,,,,,,,,,,,,,,,,,,,,,,,,,,,,,,,,,,,,,,,,,,,,,,,,,,,,,,,,,,,,,,,,,,,,,,,,,,,,,,,,,,,,,,,,,,,,,,,,,
1717572053.067547,105.000000,1.000000,4363.333496,4369.358887,4364.358887,4380.769043,4355.769043,4349.743652,4342.179688,4359.871582,4341.474121,4317.628418,4452.243652,4515.641113,4412.371582,4434.422852,6412.500000,0.000000,4.000000,,,,0.000000,4.000000,4.000000,4.000000,4.000000,4.000000,4.000000,4.000000,4.000000,4.000000,4.000000,4.000000,4.000000,4.000000,4.000000,100.000000,,,,,,,,,,,,,,,,,,,,,,,,,,,,,,,,,,,,,,,,,,,,,,,,,,,,,,,,,,,,,,,,,,,,0.000000,0.000000,1.000000,0.000000,128.000000,0.133924,,,,,,,,,,,,,,,,,,,,,,,,,,,,,,,,,,,,,,,,,,,,,,,,,,,,,,,,,,,,,,,,,,,,,,
1717572053.075355,106.000000,1.000000,4359.871582,4366.282227,4360.427246,4375.726563,4352.649414,4346.538574,4338.931641,4357.521484,4339.316406,4316.922852,4446.239258,4509.700684,4406.666504,4428.333496,6521.666504,0.000000,4.000000,,,,0.000000,4.000000,4.000000,4.000000,4.000000,4.000000,4.000000,4.000000,4.000000,4.000000,4.000000,4.000000,4.000000,4.000000,4.000000,100.000000,,,,,,,,,,,,,,,,,,,,,,,,,,,,,,,,,,,,,,,,,,,,,,,,,,,,,,,,,,,,,,,,,,,,,,,,,,,,,,,,,,,,,,,,,,,,,,,,,,,,,,,,,,,,,,,,,,,,,,,,,,,,,,,,,,,,,,,,,,,,,,,
1717572053.083163,107.000000,1.000000,4356.410156,4363.205078,4356.495605,4370.683594,4349.529785,4343.333496,4335.683594,4355.170898,4337.158203,4316.217773,4440.234863,4503.760742,4400.961426,4422.243652,6630.833496,0.000000,4.000000,,,,0.000000,4.000000,4.000000,4.000000,4.000000,4.000000,4.000000,4.000000,4.000000,4.000000,4.000000,4.000000,4.000000,4.000000,4.000000,100.000000,,,,,,,,,,,,,,,,,,,,,,,,,,,,,,,,,,,,,,,,,,,,,,,,,,,,,,,,,,,,,,,,,,,,,,,,,,,,,,,,,,,,,,,,,,,,,,,,,,,,,,,,,,,,,,,,,,,,,,,,,,,,,,,,,,,,,,,,,,,,,,,
1717572053.090971,108.000000,0.000000,4352.948730,4360.128418,4352.563965,4365.641113,4346.410156,4340.128418,4332.436035,4352.820313,4335.000000,4315.512695,4434.230957,4497.820313,4395.256348,4416.153809,6740.000000,0.000000,4.000000,,,,0.000000,4.000000,4.000000,4.000000,4.000000,4.000000,4.000000,4.000000,4.000000,4.000000,4.000000,4.000000,4.000000,4.000000,4.000000,100.000000,,,,,,,,,,,,,,,,,,,,,,,,,,,,,,,,,,,,,,,,,,,,,,,,,,,,,,,,,,,,,,,,,,,,,,,,,,,,,,,,,,,,,,,,,,,,,,,,,,,,,,,,,,,,,,,,,,,,,,,,,,,,,,,,,,,,,,,,,,,,,,,
1717572054.277539,12.000000,0.000000,4354.102539,4343.205078,4343.333496,4351.794922,4333.333496,4337.307617,4330.641113,4349.102539,4343.205078,4325.769043,4462.692383,4499.102539,4386.410156,4419.871582,6718.000000,0.000000,4.000000,,,,0.000000,4.000000,4.000000,4.000000,4.000000,4.000000,4.000000,4.000000,4.000000,4.000000,4.000000,4.000000,4.000000,4.000000,4.000000,100.000000,,,,,,,,,,,,,,,,,,,,,,,,,,,,,,,,,,,,,,,,,,,,,,,,,,,,,,,,,,,,,,,,,,,,0.000000,0.000000,1.000000,0.000000,128.000000,0.133924,,,,,,,,,,,,,,,,,,,,,,,,,,,,,,,,,,,,,,,,,,,,,,,,,,,,,,,,,,,,,,,,,,,,,,
1717572054.285347,13.000000,1.000000,4355.833496,4339.807617,4344.422852,4353.974121,4333.397461,4336.025879,4327.884766,4343.653809,4338.910156,4321.730957,4454.936035,4495.577148,4380.448730,4417.563965,6768.000000,0.000000,4.000000,,,,0.000000,4.000000,4.000000,4.000000,4.000000,4.000000,4.000000,4.000000,4.000000,4.000000,4.000000,4.000000,4.000000,4.000000,4.000000,100.000000,,,,,,,,,,,,,,,,,,,,,,,,,,,,,,,,,,,,,,,,,,,,,,,,,,,,,,,,,,,,,,,,,,,,,,,,,,,,,,,,,,,,,,,,,,,,,,,,,,,,,,,,,,,,,,,,,,,,,,,,,,,,,,,,,,,,,,,,,,,,,,,
1717572054.293155,14.000000,0.000000,4357.563965,4336.410156,4345.512695,4356.153809,4333.461426,4334.743652,4325.128418,4338.205078,4334.615234,4317.692383,4447.179688,4492.051270,4374.487305,4415.256348,6045.000000,0.000000,4.000000,,,,0.000000,4.000000,4.000000,4.000000,4.000000,4.000000,4.000000,4.000000,4.000000,4.000000,4.000000,4.000000,4.000000,4.000000,4.000000,100.000000,,,,,,,,,,,,,,,,,,,,,,,,,,,,,,,,,,,,,,,,,,,,,,,,,,,,,,,,,,,,,,,,,,,,,,,,,,,,,,,,,,,,,,,,,,,,,,,,,,,,,,,,,,,,,,,,,,,,,,,,,,,,,,,,,,,,,,,,,,,,,,,
1717572054.301163,15.000000,1.000000,4357.643066,4336.321289,4345.601563,4355.937012,4333.086914,4335.227051,4326.271973,4339.339355,4335.571777,4319.477539,4448.580078,4493.224609,4375.571777,4416.271973,5811.000000,0.000000,4.000000,,,,0.000000,4.000000,4.000000,4.000000,4.000000,4.000000,4.000000,4.000000,4.000000,4.000000,4.000000,4.000000,4.000000,4.000000,4.000000,100.000000,,,,,,,,,,,,,,,,,,,,,,,,,,,,,,,,,,,,,,,,,,,,,,,,,,,,,,,,,,,,,,,,,,,,,,,,,,,,,,,,,,,,,,,,,,,,,,,,,,,,,,,,,,,,,,,,,,,,,,,,,,,,,,,,,,,,,,,,,,,,,,,
1717572054.308971,16.000000,1.000000,4357.721680,4336.232910,4345.690430,4355.719727,4332.711914,4335.709961,4327.416016,4340.473145,4336.528809,4321.262207,4449.980469,4494.398438,4376.656738,4417.288086,5115.000000,0.000000,4.000000,,,,0.000000,4.000000,4.000000,4.000000,4.000000,4.000000,4.000000,4.000000,4.000000,4.000000,4.000000,4.000000,4.000000,4.000000,4.000000,100.000000,,,,,,,,,,,,,,,,,,,,,,,,,,,,,1.000000,0.000000,0.000000,,,,,,,,,,,,,,,,,,,,,,,,,,,,,,,,,,,,,0.000000,0.000000,1.000000,0.000000,128.000000,0.187964,7.010646,0.803627,0.351217,0.333495,0.113413,11.311009,0.897596,0.307101,0.452572,0.315563,5.693194,1.083045,0.545775,0.568049,0.198494,10.106256,1.196106,0.680616,0.527497,0.293942,0.557886,0.470560,0.419757,0.310474,0.092611,2.513653,0.908953,0.701218,0.443310,0.140356,1.901066,0.899298,0.427792,0.399943,0.133438,2.745818,0.775664,0.486644,0.352629,0.131358,9.520058,2.442389,1.923775,0.923476,0.358652,12.439262,3.524411,2.687757,1.295151,0.452283,3.899000,1.629527,1.328598,1.122479,0.323590,9.224862,1.742052,0.960140,0.937673,0.305939,4.490739,2.312829,1.512585,1.101128,0.256534,8.640350,1.373959,0.816721,0.928838,0.237177
1717572054.316779,17.000000,1.000000,4357.800781,4336.144043,4345.779297,4355.502930,4332.337402,4336.193359,4328.560059,4341.607422,4337.485352,4323.047363,4451.380859,4495.571777,4377.741699,4418.303711,4650.000000,0.000000,4.000000,,,,0.000000,4.000000,4.000000,4.000000,4.000000,4.000000,4.000000,4.000000,4.000000,4.000000,4.000000,4.000000,4.000000,4.000000,4.000000,100.000000,,,,,,,,,,,,,,,,,,,,,,,,,,,,,,,,,,,,,,,,,,,,,,,,,,,,,,,,,,,,,,,,,,,,,,,,,,,,,,,,,,,,,,,,,,,,,,,,,,,,,,,,,,,,,,,,,,,,,,,,,,,,,,,,,,,,,,,,,,,,,,,
1717572054.324587,18.000000,1.000000,4357.879883,4336.055176,4345.867676,4355.286133,4331.962402,4336.676758,4329.704102,4342.741699,4338.441895,4324.832520,4452.781250,4496.745605,4378.826660,4419.319336,4185.000000,0.000000,4.000000,,,,0.000000,4.000000,4.000000,4.000000,4.000000,4.000000,4.000000,4.000000,4.000000,4.000000,4.000000,4.000000,4.000000,4.000000,4.000000,100.000000,,,,,,,,,,,,,,,,,,,,,,,,,,,,,,,,,,,,,,,,,,,,,,,,,,,,,,,,,,,,,,,,,,,,,,,,,,,,,,,,,,,,,,,,,,,,,,,,,,,,,,,,,,,,,,,,,,,,,,,,,,,,,,,,,,,,,,,,,,,,,,,
1717572054.332395,19.000000,1.000000,4357.958496,4335.966309,4345.956543,4355.068848,4331.587891,4337.159668,4330.848145,4343.875977,4339.398438,4326.617188,4454.181641,4497.918945,4379.911133,4420.335449,3720.000000,0.000000,4.000000,,,,0.000000,4.000000,4.000000,4.000000,4.000000,4.000000,4.000000,4.000000,4.000000,4.000000,4.000000,4.000000,4.000000,4.000000,4.000000,100.000000,,,,,,,,,,,,,,,,,,,,,,,,,,,,,,,,,,,,,,,,,,,,,,,,,,,,,,,,,,,,,,,,,,,,,,,,,,,,,,,,,,,,,,,,,,,,,,,,,,,,,,,,,,,,,,,,,,,,,,,,,,,,,,,,,,,,,,,,,,,,,,,
1717572054.340203,20.000000,1.000000,4358.037598,4335.877930,4346.045410,4354.852051,4331.212891,4337.643066,4331.992188,4345.009766,4340.354980,4328.402344,4455.582031,4499.092773,4380.996094,4421.351074,3255.000000,0.000000,4.000000,,,,0.000000,4.000000,4.000000,4.000000,4.000000,4.000000,4.000000,4.000000,4.000000,4.000000,4.000000,4.000000,4.000000,4.000000,4.000000,100.000000,,,,,,,,,,,,,,,,,,,,,,,,,,,,,,,,,,,,,,,,,,,,,,,,,,,,,,,,,,,,,,,,,,,,0.000000,0.000000,1.000000,0.000000,128.000000,0.187964,,,,,,,,,,,,,,,,,,,,,,,,,,,,,,,,,,,,,,,,,,,,,,,,,,,,,,,,,,,,,,,,,,,,,,
1717572054.348011,21.000000,1.000000,4358.116211,4335.789063,4346.134277,4354.635254,4330.838379,4338.126465,4333.136230,4346.144043,4341.311523,4330.187500,4456.982422,4500.266113,4382.081055,4422.366699,2790.000000,0.000000,4.000000,,,,0.000000,4.000000,4.000000,4.000000,4.000000,4.000000,4.000000,4.000000,4.000000,4.000000,4.000000,4.000000,4.000000,4.000000,4.000000,100.000000,,,,,,,,,,,,,,,,,,,,,,,,,,,,,,,,,,,,,,,,,,,,,,,,,,,,,,,,,,,,,,,,,,,,,,,,,,,,,,,,,,,,,,,,,,,,,,,,,,,,,,,,,,,,,,,,,,,,,,,,,,,,,,,,,,,,,,,,,,,,,,,
1717572054.355819,22.000000,1.000000,4358.195313,4335.700195,4346.222656,4354.417969,4330.463379,4338.609375,4334.280273,4347.278320,4342.268066,4331.972168,4458.382813,4501.439941,4383.165527,4423.382813,2325.000000,0.000000,4.000000,,,,0.000000,4.000000,4.000000,4.000000,4.000000,4.000000,4.000000,4.000000,4.000000,4.000000,4.000000,4.000000,4.000000,4.000000,4.000000,100.000000,,,,,,,,,,,,,,,,,,,,,,,,,,,,,,,,,,,,,,,,,,,,,,,,,,,,,,,,,,,,,,,,,,,,,,,,,,,,,,,,,,,,,,,,,,,,,,,,,,,,,,,,,,,,,,,,,,,,,,,,,,,,,,,,,,,,,,,,,,,,,,,
1717572054.363627,23.000000,1.000000,4358.273926,4335.611328,4346.311523,4354.201172,4330.088867,4339.092773,4335.423828,4348.412109,4343.224609,4333.757324,4459.783203,4502.613281,4384.250488,4424.398438,1860.000000,0.000000,4.000000,,,,0.000000,4.000000,4.000000,4.000000,4.000000,4.000000,4.000000,4.000000,4.000000,4.000000,4.000000,4.000000,4.000000,4.000000,4.000000,100.000000,,,,,,,,,,,,,,,,,,,,,,,,,,,,,,,,,,,,,,,,,,,,,,,,,,,,,,,,,,,,,,,,,,,,,,,,,,,,,,,,,,,,,,,,,,,,,,,,,,,,,,,,,,,,,,,,,,,,,,,,,,,,,,,,,,,,,,,,,,,,,,,
1717572054.371435,24.000000,1.000000,4358.353027,4335.522461,4346.400391,4353.984375,4329.713867,4339.576172,4336.567871,4349.546387,4344.181641,4335.542480,4461.183594,4503.787109,4385.335449,4425.414063,1395.000000,0.000000,4.000000,,,,0.000000,4.000000,4.000000,4.000000,4.000000,4.000000,4.000000,4.000000,4.000000,4.000000,4.000000,4.000000,4.000000,4.000000,4.000000,100.000000,,,,,,,,,,,,,,,,,,,,,,,,,,,,,,,,,,,,,,,,,,,,,,,,,,,,,,,,,,,,,,,,,,,,0.000000,0.000000,1.000000,0.000000,128.000000,0.187964,,,,,,,,,,,,,,,,,,,,,,,,,,,,,,,,,,,,,,,,,,,,,,,,,,,,,,,,,,,,,,,,,,,,,,
1717572054.379243,25.000000,1.000000,4358.432129,4335.434082,4346.489258,4353.767090,4329.339355,4340.059082,4337.711914,4350.680664,4345.138184,4337.327637,4462.583984,4504.960449,4386.419922,4426.430176,930.000000,0.000000,4.000000,,,,0.000000,4.000000,4.000000,4.000000,4.000000,4.000000,4.000000,4.000000,4.000000,4.000000,4.000000,4.000000,4.000000,4.000000,4.000000,100.000000,,,,,,,,,,,,,,,,,,,,,,,,,,,,,,,,,,,,,,,,,,,,,,,,,,,,,,,,,,,,,,,,,,,,,,,,,,,,,,,,,,,,,,,,,,,,,,,,,,,,,,,,,,,,,,,,,,,,,,,,,,,,,,,,,,,,,,,,,,,,,,,
1717572054.387051,26.000000,1.000000,4358.510742,4335.345215,4346.578125,4353.550293,4328.964355,4340.542480,4338.855957,4351.814453,4346.094727,4339.112305,4463.984375,4506.134277,4387.504883,4427.445801,465.000000,0.000000,4.000000,,,,0.000000,4.000000,4.000000,4.000000,4.000000,4.000000,4.000000,4.000000,4.000000,4.000000,4.000000,4.000000,4.000000,4.000000,4.000000,100.000000,,,,,,,,,,,,,,,,,,,,,,,,,,,,,,,,,,,,,,,,,,,,,,,,,,,,,,,,,,,,,,,,,,,,,,,,,,,,,,,,,,,,,,,,,,,,,,,,,,,,,,,,,,,,,,,,,,,,,,,,,,,,,,,,,,,,,,,,,,,,,,,
1717572054.394859,27.000000,0.000000,4358.589844,4335.256348,4346.666504,4353.333496,4328.589844,4341.025879,4340.000000,4352.948730,4347.051270,4340.897461,4465.384766,4507.307617,4388.589844,4428.461426,0.000000,0.000000,4.000000,,,,0.000000,4.000000,4.000000,4.000000,4.000000,4.000000,4.000000,4.000000,4.000000,4.000000,4.000000,4.000000,4.000000,4.000000,4.000000,100.000000,,,,,,,,,,,,,,,,,,,,,,,,,,,,,,,,,,,,,,,,,,,,,,,,,,,,,,,,,,,,,,,,,,,,,,,,,,,,,,,,,,,,,,,,,,,,,,,,,,,,,,,,,,,,,,,,,,,,,,,,,,,,,,,,,,,,,,,,,,,,,,,
1717572054.402667,28.000000,0.000000,4351.794922,4329.615234,4343.589844,4338.205078,4321.922852,4334.230957,4332.051270,4347.436035,4341.666504,4336.794922,4459.743652,4502.051270,4379.230957,4421.794922,0.000000,0.000000,4.000000,,,,0.000000,4.000000,4.000000,4.000000,4.000000,4.000000,4.000000,4.000000,4.000000,4.000000,4.000000,4.000000,4.000000,4.000000,4.000000,100.000000,,,,,,,,,,,,,,,,,,,,,,,,,,,,,,,,,,,,,,,,,,,,,,,,,,,,,,,,,,,,,,,,,,,,0.000000,0.000000,1.000000,0.000000,128.000000,0.187964,,,,,,,,,,,,,,,,,,,,,,,,,,,,,,,,,,,,,,,,,,,,,,,,,,,,,,,,,,,,,,,,,,,,,,
1717572054.410375,29.000000,1.000000,4353.333496,4330.641113,4344.786133,4341.282227,4324.786133,4337.414551,4335.512695,4351.025879,4346.175293,4339.871582,4462.158203,4503.653809,4382.820313,4422.649414,0.000000,0.000000,4.000000,,,,0.000000,4.000000,4.000000,4.000000,4.000000,4.000000,4.000000,4.000000,4.000000,4.000000,4.000000,4.000000,4.000000,4.000000,4.000000,100.000000,,,,,,,,,,,,,,,,,,,,,,,,,,,,,,,,,,,,,,,,,,,,,,,,,,,,,,,,,,,,,,,,,,,,,,,,,,,,,,,,,,,,,,,,,,,,,,,,,,,,,,,,,,,,,,,,,,,,,,,,,,,,,,,,,,,,,,,,,,,,,,,
1717572054.418183,30.000000,1.000000,4354.871582,4331.666504,4345.982910,4344.358887,4327.649414,4340.598145,4338.974121,4354.615234,4350.683594,4342.948730,4464.572754,4505.256348,4386.410156,4423.504395,0.000000,0.000000,4.000000,,,,0.000000,4.000000,4.000000,4.000000,4.000000,4.000000,4.000000,4.000000,4.000000,4.000000,4.000000,4.000000,4.000000,4.000000,4.000000,100.000000,,,,,,,,,,,,,,,,,,,,,,,,,,,,,,,,,,,,,,,,,,,,,,,,,,,,,,,,,,,,,,,,,,,,,,,,,,,,,,,,,,,,,,,,,,,,,,,,,,,,,,,,,,,,,,,,,,,,,,,,,,,,,,,,,,,,,,,,,,,,,,,
1717572054.425991,31.000000,1.000000,4356.410156,4332.692383,4347.179688,4347.436035,4330.512695,4343.782227,4342.436035,4358.205078,4355.192383,4346.025879,4466.987305,4506.858887,4390.000000,4424.358887,0.000000,0.000000,4.000000,,,,0.000000,4.000000,4.000000,4.000000,4.000000,4.000000,4.000000,4.000000,4.000000,4.000000,4.000000,4.000000,4.000000,4.000000,4.000000,100.000000,,,,,,,,,,,,,,,,,,,,,,,,,,,,,,,,,,,,,,,,,,,,,,,,,,,,,,,,,,,,,,,,,,,,,,,,,,,,,,,,,,,,,,,,,,,,,,,,,,,,,,,,,,,,,,,,,,,,,,,,,,,,,,,,,,,,,,,,,,,,,,,
1717572054.433799,32.000000,1.000000,4357.948730,4333.717773,4348.375977,4350.512695,4333.375977,4346.965820,4345.897461,4361.794922,4359.700684,4349.102539,4469.401855,4508.461426,4393.589844,4425.213867,0.000000,0.000000,4.000000,,,,0.000000,4.000000,4.000000,4.000000,4.000000,4.000000,4.000000,4.000000,4.000000,4.000000,4.000000,4.000000,4.000000,4.000000,4.000000,100.000000,,,,,,,,,,,,,,,,,8.000000,1.000000,0.419242,-0.526855,-0.437337,-0.596151,1.000814,0.077931,0.058682,-34.643253,-31.367229,28.144709,1.000000,0.000000,0.000000,,,,,,,,,,,,,,,,,,,,,,,,,,,,,,,,,,,,,0.000000,0.000000,1.000000,0.000000,128.000000,1.000000,5.309027,0.564373,0.203708,0.187342,0.077373,9.124994,0.681346,0.227625,0.374292,0.275192,4.599189,0.727326,0.301421,0.310820,0.135853,8.310489,0.914002,0.432428,0.294424,0.225676,0.439959,0.270662,0.217819,0.149226,0.057852,2.291540,0.703864,0.503919,0.274983,0.099335,1.500784,0.562864,0.263102,0.204952,0.081598,2.467588,0.578776,0.318980,0.193107,0.083051,8.789129,2.219294,1.516836,0.665761,0.278086,11.445860,3.117609,2.160794,0.959862,0.358890,3.367418,1.206233,0.837819,0.606856,0.203004,7.082564,1.178878,0.517070,0.483181,0.191393,3.521928,1.330696,0.816359,0.521282,0.146299,6.722654,0.886271,0.395344,0.463147,0.142756
1717572054.441607,33.000000,1.000000,4359.487305,4334.743652,4349.572754,4353.589844,4336.239258,4350.149414,4349.358887,4365.384766,4364.209473,4352.179688,4471.816406,4510.063965,4397.179688,4426.068359,0.000000,0.000000,4.000000,,,,0.000000,4.000000,4.000000,4.000000,4.000000,4.000000,4.000000,4.000000,4.000000,4.000000,4.000000,4.000000,4.000000,4.000000,4.000000,100.000000,,,,,,,,,,,,,,,,,,,,,,,,,,,,,,,,,,,,,,,,,,,,,,,,,,,,,,,,,,,,,,,,,,,,,,,,,,,,,,,,,,,,,,,,,,,,,,,,,,,,,,,,,,,,,,,,,,,,,,,,,,,,,,,,,,,,,,,,,,,,,,,
1717572054.449415,34.000000,0.000000,4361.025879,4335.769043,4350.769043,4356.666504,4339.102539,4353.333496,4352.820313,4368.974121,4368.717773,4355.256348,4474.230957,4511.666504,4400.769043,4426.922852,0.000000,0.000000,4.000000,,,,0.000000,4.000000,4.000000,4.000000,4.000000,4.000000,4.000000,4.000000,4.000000,4.000000,4.000000,4.000000,4.000000,4.000000,4.000000,100.000000,,,,,,,,,,,,,,,,,,,,,,,,,,,,,,,,,,,,,,,,,,,,,,,,,,,,,,,,,,,,,,,,,,,,,,,,,,,,,,,,,,,,,,,,,,,,,,,,,,,,,,,,,,,,,,,,,,,,,,,,,,,,,,,,,,,,,,,,,,,,,,,
1717572055.192709,115.000000,0.000000,4367.179688,4344.615234,4352.820313,4383.077148,4353.589844,4339.871582,4348.717773,4348.077148,4338.974121,4330.128418,4437.307617,4510.641113,4375.512695,4433.333496,5866.000000,0.000000,4.000000,,,,0.000000,4.000000,4.000000,4.000000,4.000000,4.000000,4.000000,4.000000,4.000000,4.000000,4.000000,4.000000,4.000000,4.000000,4.000000,100.000000,,,,,,,,,,,,,,,,,,,,,,,,,,,,,,,,,,,,,,,,,,,,,,,,,,,,,,,,,,,,,,,,,,,,,,,,,,,,,,,,,,,,,,,,,,,,,,,,,,,,,,,,,,,,,,,,,,,,,,,,,,,,,,,,,,,,,,,,,,,,,,,
1717572055.200817,116.000000,1.000000,4365.822266,4344.067383,4351.542969,4381.476563,4352.599609,4338.908203,4347.855957,4347.325195,4337.842773,4329.469727,4435.720703,4509.022949,4374.606445,4431.834473,5663.724121,0.000000,4.000000,,,,0.000000,4.000000,4.000000,4.000000,4.000000,4.000000,4.000000,4.000000,4.000000,4.000000,4.000000,4.000000,4.000000,4.000000,4.000000,100.000000,,,,,,,,,,,,,,,,,,,,,,,,,,,,,,,,,,,,,,,,,,,,,,,,,,,,,,,,,,,,,,,,,,,,0.000000,0.000000,1.000000,0.000000,128.000000,1.000000,,,,,,,,,,,,,,,,,,,,,,,,,,,,,,,,,,,,,,,,,,,,,,,,,,,,,,,,,,,,,,,,,,,,,,
1717572055.208625,117.000000,1.000000,4364.464844,4343.519043,4350.265137,4379.875977,4351.609375,4337.944336,4346.993652,4346.573730,4336.710938,4328.810547,4434.133301,4507.404785,4373.700195,4430.335938,5461.448242,0.000000,4.000000,,,,0.000000,4.000000,4.000000,4.000000,4.000000,4.000000,4.000000,4.000000,4.000000,4.000000,4.000000,4.000000,4.000000,4.000000,4.000000,100.000000,,,,,,,,,,,,,,,,,,,,,,,,,,,,,,,,,,,,,,,,,,,,,,,,,,,,,,,,,,,,,,,,,,,,,,,,,,,,,,,,,,,,,,,,,,,,,,,,,,,,,,,,,,,,,,,,,,,,,,,,,,,,,,,,,,,,,,,,,,,,,,,
1717572055.216433,118.000000,1.000000,4363.107910,4342.970703,4348.987793,4378.275879,4350.619141,4336.980469,4346.131836,4345.822266,4335.579102,4328.151855,4432.546387,4505.787109,4372.793945,4428.837402,5259.172363,0.000000,4.000000,,,,0.000000,4.000000,4.000000,4.000000,4.000000,4.000000,4.000000,4.000000,4.000000,4.000000,4.000000,4.000000,4.000000,4.000000,4.000000,100.000000,,,,,,,,,,,,,,,,,,,,,,,,,,,,,,,,,,,,,,,,,,,,,,,,,,,,,,,,,,,,,,,,,,,,,,,,,,,,,,,,,,,,,,,,,,,,,,,,,,,,,,,,,,,,,,,,,,,,,,,,,,,,,,,,,,,,,,,,,,,,,,,
1717572055.224241,119.000000,1.000000,4361.750488,4342.422852,4347.709961,4376.675293,4349.628418,4336.016602,4345.269531,4345.070801,4334.447266,4327.493164,4430.959473,4504.168945,4371.887695,4427.338867,5056.896484,0.000000,4.000000,,,,0.000000,4.000000,4.000000,4.000000,4.000000,4.000000,4.000000,4.000000,4.000000,4.000000,4.000000,4.000000,4.000000,4.000000,4.000000,100.000000,,,,,,,,,,,,,,,,,,,,,,,,,,,,,,,,,,,,,,,,,,,,,,,,,,,,,,,,,,,,,,,,,,,,,,,,,,,,,,,,,,,,,,,,,,,,,,,,,,,,,,,,,,,,,,,,,,,,,,,,,,,,,,,,,,,,,,,,,,,,,,,
1717572055.232049,120.000000,1.000000,4360.393555,4341.874512,4346.432129,4375.075195,4348.638184,4335.053223,4344.407715,4344.319336,4333.315430,4326.834473,4429.372070,4502.550781,4370.981445,4425.839844,4854.620605,0.000000,4.000000,,,,0.000000,4.000000,4.000000,4.000000,4.000000,4.000000,4.000000,4.000000,4.000000,4.000000,4.000000,4.000000,4.000000,4.000000,4.000000,100.000000,,,,,,,,,,,,,,,,,,,,,,,,,,,,,,,,,,,,,,,,,,,,,,,,,,,,,,,,,,,,,,,,,,,,0.000000,0.000000,1.000000,0.000000,128.000000,1.000000,,,,,,,,,,,,,,,,,,,,,,,,,,,,,,,,,,,,,,,,,,,,,,,,,,,,,,,,,,,,,,,,,,,,,,
1717572055.239857,121.000000,1.000000,4359.036133,4341.326172,4345.154785,4373.474609,4347.647949,4334.089355,4343.545410,4343.567871,4332.184082,4326.175781,4427.785156,4500.932617,4370.075195,4424.341309,4652.344727,0.000000,4.000000,,,,0.000000,4.000000,4.000000,4.000000,4.000000,4.000000,4.000000,4.000000,4.000000,4.000000,4.000000,4.000000,4.000000,4.000000,4.000000,100.000000,,,,,,,,,,,,,,,,,,,,,,,,,,,,,,,,,,,,,,,,,,,,,,,,,,,,,,,,,,,,,,,,,,,,,,,,,,,,,,,,,,,,,,,,,,,,,,,,,,,,,,,,,,,,,,,,,,,,,,,,,,,,,,,,,,,,,,,,,,,,,,,
1717572055.247665,122.000000,1.000000,4357.679199,4340.777832,4343.876953,4371.874512,4346.657715,4333.125488,4342.683594,4342.815918,4331.052246,4325.517090,4426.198242,4499.314941,4369.168945,4422.842773,4450.068848,0.000000,4.000000,,,,0.000000,4.000000,4.000000,4.000000,4.000000,4.000000,4.000000,4.000000,4.000000,4.000000,4.000000,4.000000,4.000000,4.000000,4.000000,100.000000,,,,,,,,,,,,,,,,,,,,,,,,,,,,,,,,,,,,,,,,,,,,,,,,,,,,,,,,,,,,,,,,,,,,,,,,,,,,,,,,,,,,,,,,,,,,,,,,,,,,,,,,,,,,,,,,,,,,,,,,,,,,,,,,,,,,,,,,,,,,,,,
1717572055.255473,123.000000,1.000000,4356.321777,4340.229980,4342.599609,4370.273926,4345.667480,4332.161621,4341.821289,4342.064453,4329.920410,4324.858398,4424.610840,4497.696777,4368.262695,4421.343750,4247.792969,0.000000,4.000000,,,,0.000000,4.000000,4.000000,4.000000,4.000000,4.000000,4.000000,4.000000,4.000000,4.000000,4.000000,4.000000,4.000000,4.000000,4.000000,100.000000,,,,,,,,,,,,,,,,,,,,,,,,,,,,,,,,,,,,,,,,,,,,,,,,,,,,,,,,,,,,,,,,,,,,,,,,,,,,,,,,,,,,,,,,,,,,,,,,,,,,,,,,,,,,,,,,,,,,,,,,,,,,,,,,,,,,,,,,,,,,,,,
1717572055.263281,124.000000,1.000000,4354.964844,4339.681641,4341.321777,4368.673828,4344.677246,4331.198242,4340.959473,4341.312988,4328.788574,4324.199707,4423.023926,4496.078613,4367.356445,4419.845215,4045.517334,0.000000,4.000000,,,,0.000000,4.000000,4.000000,4.000000,4.000000,4.000000,4.000000,4.000000,4.000000,4.000000,4.000000,4.000000,4.000000,4.000000,4.000000,100.000000,,,,,,,,,,,,,,,,,,,,,,,,,,,,,,,,,,,,,,,,,,,,,,,,,,,,,,,,,,,,,,,,,,,,0.000000,0.000000,1.000000,0.000000,128.000000,1.000000,,,,,,,,,,,,,,,,,,,,,,,,,,,,,,,,,,,,,,,,,,,,,,,,,,,,,,,,,,,,,,,,,,,,,,
1717572055.271089,125.000000,1.000000,4353.607422,4339.133301,4340.044434,4367.073242,4343.687012,4330.234375,4340.097168,4340.561523,4327.656738,4323.541016,4421.437012,4494.460449,4366.450195,4418.346680,3843.241455,0.000000,4.000000,,,,0.000000,4.000000,4.000000,4.000000,4.000000,4.000000,4.000000,4.000000,4.000000,4.000000,4.000000,4.000000,4.000000,4.000000,4.000000,100.000000,,,,,,,,,,,,,,,,,,,,,,,,,,,,,,,,,,,,,,,,,,,,,,,,,,,,,,,,,,,,,,,,,,,,,,,,,,,,,,,,,,,,,,,,,,,,,,,,,,,,,,,,,,,,,,,,,,,,,,,,,,,,,,,,,,,,,,,,,,,,,,,
1717572055.278897,126.000000,1.000000,4352.250000,4338.585449,4338.766602,4365.473145,4342.696777,4329.270508,4339.235352,4339.810059,4326.525391,4322.882324,4419.849609,4492.842773,4365.543945,4416.848145,3640.965576,0.000000,4.000000,,,,0.000000,4.000000,4.000000,4.000000,4.000000,4.000000,4.000000,4.000000,4.000000,4.000000,4.000000,4.000000,4.000000,4.000000,4.000000,100.000000,,,,,,,,,,,,,,,,,,,,,,,,,,,,,,,,,,,,,,,,,,,,,,,,,,,,,,,,,,,,,,,,,,,,,,,,,,,,,,,,,,,,,,,,,,,,,,,,,,,,,,,,,,,,,,,,,,,,,,,,,,,,,,,,,,,,,,,,,,,,,,,
1717572055.286705,127.000000,1.000000,4350.893066,4338.037109,4337.488770,4363.872559,4341.706543,4328.306641,4338.373047,4339.058594,4325.393555,4322.223633,4418.262695,4491.224609,4364.637695,4415.349121,3438.689697,0.000000,4.000000,,,,0.000000,4.000000,4.000000,4.000000,4.000000,4.000000,4.000000,4.000000,4.000000,4.000000,4.000000,4.000000,4.000000,4.000000,4.000000,100.000000,,,,,,,,,,,,,,,,,,,,,,,,,,,,,,,,,,,,,,,,,,,,,,,,,,,,,,,,,,,,,,,,,,,,,,,,,,,,,,,,,,,,,,,,,,,,,,,,,,,,,,,,,,,,,,,,,,,,,,,,,,,,,,,,,,,,,,,,,,,,,,,
1717572055.294513,0.000000,1.000000,4349.535645,4337.488770,4336.211426,4362.272461,4340.716309,4327.343262,4337.511230,4338.306641,4324.261719,4321.564941,4416.675293,4489.606445,4363.731445,4413.850586,3941.000000,0.000000,4.000000,,,,0.000000,4.000000,4.000000,4.000000,4.000000,4.000000,4.000000,4.000000,4.000000,4.000000,4.000000,4.000000,4.000000,4.000000,4.000000,100.000000,-1.000000,25.000000,4.000000,4.000000,1.000000,4.000000,1.000000,1.000000,3.000000,3.000000,3.000000,1.000000,1.000000,3.000000,1.000000,3.000000,0.000000,1.000000,0.419264,-0.528412,-0.436005,-0.595734,1.000000,0.071420,0.059089,-34.682281,-31.328899,27.887451,1.000000,0.000000,0.000000,,,,,,,,,,,,,,,,,,,,,,,,,,,,,,,,,,,,,0.000000,0.000000,1.000000,0.000000,128.000000,1.000000,3.556828,0.375868,0.124015,0.099862,0.052367,6.528667,0.498044,0.169409,0.278039,0.214149,3.281047,0.457540,0.179574,0.167066,0.091588,6.073239,0.668921,0.284961,0.159248,0.164573,0.398640,0.151910,0.111002,0.067211,0.039350,1.883198,0.504567,0.337541,0.160505,0.072910,1.126910,0.308717,0.154071,0.088885,0.051512,2.023892,0.402742,0.194172,0.092362,0.053943,7.180583,1.832793,1.093529,0.455437,0.207357,9.311269,2.531106,1.594897,0.673118,0.268994,2.668996,0.837902,0.513610,0.298238,0.127157,4.888214,0.729752,0.272211,0.226585,0.119790,2.670631,0.730549,0.439005,0.215093,0.094389,4.658679,0.543691,0.196273,0.208784,0.091047
1717572055.302321,1.000000,1.000000,4348.178711,4336.940918,4334.933594,4360.671875,4339.726074,4326.379395,4336.648926,4337.555176,4323.129883,4320.906250,4415.088379,4487.988281,4362.824707,4412.352051,5497.000000,0.000000,4.000000,,,,0.000000,4.000000,4.000000,4.000000,4.000000,4.000000,4.000000,4.000000,4.000000,4.000000,4.000000,4.000000,4.000000,4.000000,4.000000,100.000000,,,,,,,,,,,,,,,,,,,,,,,,,,,,,,,,,,,,,,,,,,,,,,,,,,,,,,,,,,,,,,,,,,,,,,,,,,,,,,,,,,,,,,,,,,,,,,,,,,,,,,,,,,,,,,,,,,,,,,,,,,,,,,,,,,,,,,,,,,,,,,,
1717572055.310128,2.000000,1.000000,4346.821289,4336.392578,4333.656250,4359.071777,4338.735840,4325.415527,4335.787109,4336.803711,4321.998047,4320.247559,4413.501465,4486.370605,4361.918457,4410.853027,3841.000000,0.000000,4.000000,,,,0.000000,4.000000,4.000000,4.000000,4.000000,4.000000,4.000000,4.000000,4.000000,4.000000,4.000000,4.000000,4.000000,4.000000,4.000000,100.000000,,,,,,,,,,,,,,,,,,,,,,,,,,,,,,,,,,,,,,,,,,,,,,,,,,,,,,,,,,,,,,,,,,,,,,,,,,,,,,,,,,,,,,,,,,,,,,,,,,,,,,,,,,,,,,,,,,,,,,,,,,,,,,,,,,,,,,,,,,,,,,,
1717572055.317936,3.000000,1.000000,4345.464355,4335.844238,4332.378418,4357.471191,4337.745117,4324.451660,4334.924805,4336.052246,4320.866699,4319.588867,4411.914063,4484.752441,4361.012207,4409.354492,3523.000000,0.000000,4.000000,,,,0.000000,4.000000,4.000000,4.000000,4.000000,4.000000,4.000000,4.000000,4.000000,4.000000,4.000000,4.000000,4.000000,4.000000,4.000000,100.000000,,,,,,,,,,,,,,,,,,,,,,,,,,,,,,,,,,,,,,,,,,,,,,,,,,,,,,,,,,,,,,,,,,,,,,,,,,,,,,,,,,,,,,,,,,,,,,,,,,,,,,,,,,,,,,,,,,,,,,,,,,,,,,,,,,,,,,,,,,,,,,,
1717572055.325744,4.000000,1.000000,4344.106934,4335.296387,4331.100586,4355.871094,4336.754883,4323.488281,4334.062988,4335.300781,4319.734863,4318.930176,4410.327148,4483.134277,4360.105957,4407.855957,5192.000000,0.000000,4.000000,,,,0.000000,4.000000,4.000000,4.000000,4.000000,4.000000,4.000000,4.000000,4.000000,4.000000,4.000000,4.000000,4.000000,4.000000,4.000000,100.000000,,,,,,,,,,,,,,,,,1.000000,0.000000,0.419233,-0.528564,-0.435974,-0.595642,1.010255,0.073373,0.056403,-34.503819,-31.263660,27.991846,,,,,,,,,,,,,,,,,,,,,,,,,,,,,,,,,,,,,,,,0.000000,0.000000,1.000000,0.000000,128.000000,1.000000,,,,,,,,,,,,,,,,,,,,,,,,,,,,,,,,,,,,,,,,,,,,,,,,,,,,,,,,,,,,,,,,,,,,,,
1717572055.333552,5.000000,1.000000,4342.750000,4334.748047,4329.823242,4354.270508,4335.764648,4322.524414,4333.200684,4334.548828,4318.603027,4318.271484,4408.740234,4481.516113,4359.199707,4406.357422,5404.000000,0.000000,4.000000,,,,0.000000,4.000000,4.000000,4.000000,4.000000,4.000000,4.000000,4.000000,4.000000,4.000000,4.000000,4.000000,4.000000,4.000000,4.000000,100.000000,,,,,,,,,,,,,,,,,,,,,,,,,,,,,,,,,,,,,,,,,,,,,,,,,,,,,,,,,,,,,,,,,,,,,,,,,,,,,,,,,,,,,,,,,,,,,,,,,,,,,,,,,,,,,,,,,,,,,,,,,,,,,,,,,,,,,,,,,,,,,,,
1717572055.341360,6.000000,1.000000,4341.392578,4334.199707,4328.545410,4352.670410,4334.774414,4321.560547,4332.338867,4333.797363,4317.471191,4317.612793,4407.152832,4479.898438,4358.293457,4404.858398,5183.000000,0.000000,4.000000,,,,0.000000,4.000000,4.000000,4.000000,4.000000,4.000000,4.000000,4.000000,4.000000,4.000000,4.000000,4.000000,4.000000,4.000000,4.000000,100.000000,,,,,,,,,,,,,,,,,,,,,,,,,,,,,,,,,,,,,,,,,,,,,,,,,,,,,,,,,,,,,,,,,,,,,,,,,,,,,,,,,,,,,,,,,,,,,,,,,,,,,,,,,,,,,,,,,,,,,,,,,,,,,,,,,,,,,,,,,,,,,,,
1717572055.349168,7.000000,1.000000,4340.035156,4333.651855,4327.268066,4351.069824,4333.784180,4320.596680,4331.476563,4333.045898,4316.339355,4316.954102,4405.565918,4478.280273,4357.387207,4403.359863,4672.000000,0.000000,4.000000,,,,0.000000,4.000000,4.000000,4.000000,4.000000,4.000000,4.000000,4.000000,4.000000,4.000000,4.000000,4.000000,4.000000,4.000000,4.000000,100.000000,,,,,,,,,,,,,,,,,,,,,,,,,,,,,,,,,,,,,,,,,,,,,,,,,,,,,,,,,,,,,,,,,,,,,,,,,,,,,,,,,,,,,,,,,,,,,,,,,,,,,,,,,,,,,,,,,,,,,,,,,,,,,,,,,,,,,,,,,,,,,,,
1717572055.356976,8.000000,1.000000,4338.678223,4333.103516,4325.990234,4349.469727,4332.793945,4319.633301,4330.614258,4332.294434,4315.208008,4316.295410,4403.979004,4476.662109,4356.480957,4401.861328,5198.000000,0.000000,4.000000,,,,0.000000,4.000000,4.000000,4.000000,4.000000,4.000000,4.000000,4.000000,4.000000,4.000000,4.000000,4.000000,4.000000,4.000000,4.000000,100.000000,,,,,,,,,,,,,,,,,2.000000,1.000000,0.419186,-0.528687,-0.435913,-0.595612,0.997558,0.072397,0.057380,-34.246262,-31.271650,28.270176,,,,,,,,,,,,,,,,,,,,,,,,,,,,,,,,,,,,,,,,0.000000,0.000000,1.000000,0.000000,128.000000,1.000000,,,,,,,,,,,,,,,,,,,,,,,,,,,,,,,,,,,,,,,,,,,,,,,,,,,,,,,,,,,,,,,,,,,,,,
1717572055.364784,9.000000,1.000000,4337.320801,4332.555176,4324.712402,4347.869141,4331.803711,4318.669434,4329.752441,4331.542969,4314.076172,4315.636719,4402.391602,4475.044434,4355.574707,4400.362305,4784.000000,0.000000,4.000000,,,,0.000000,4.000000,4.000000,4.000000,4.000000,4.000000,4.000000,4.000000,4.000000,4.000000,4.000000,4.000000,4.000000,4.000000,4.000000,100.000000,,,,,,,,,,,,,,,,,,,,,,,,,,,,,,,,,,,,,,,,,,,,,,,,,,,,,,,,,,,,,,,,,,,,,,,,,,,,,,,,,,,,,,,,,,,,,,,,,,,,,,,,,,,,,,,,,,,,,,,,,,,,,,,,,,,,,,,,,,,,,,,
1717572055.372592,10.000000,1.000000,4335.963867,4332.006836,4323.435059,4346.268555,4330.813477,4317.705566,4328.890137,4330.791504,4312.944336,4314.978027,4400.804688,4473.426270,4354.668457,4398.863770,6035.000000,0.000000,4.000000,,,,0.000000,4.000000,4.000000,4.000000,4.000000,4.000000,4.000000,4.000000,4.000000,4.000000,4.000000,4.000000,4.000000,4.000000,4.000000,100.000000,,,,,,,,,,,,,,,,,,,,,,,,,,,,,,,,,,,,,,,,,,,,,,,,,,,,,,,,,,,,,,,,,,,,,,,,,,,,,,,,,,,,,,,,,,,,,,,,,,,,,,,,,,,,,,,,,,,,,,,,,,,,,,,,,,,,,,,,,,,,,,,
1717572055.380400,11.000000,1.000000,4334.606445,4331.458984,4322.157227,4344.668457,4329.823242,4316.741699,4328.028320,4330.039551,4311.812500,4314.319336,4399.217285,4471.808105,4353.762207,4397.365234,5836.000000,0.000000,4.000000,,,,0.000000,4.000000,4.000000,4.000000,4.000000,4.000000,4.000000,4.000000,4.000000,4.000000,4.000000,4.000000,4.000000,4.000000,4.000000,100.000000,,,,,,,,,,,,,,,,,,,,,,,,,,,,,,,,,,,,,,,,,,,,,,,,,,,,,,,,,,,,,,,,,,,,,,,,,,,,,,,,,,,,,,,,,,,,,,,,,,,,,,,,,,,,,,,,,,,,,,,,,,,,,,,,,,,,,,,,,,,,,,,
1717572055.388208,12.000000,1.000000,4333.249512,4330.910645,4320.879883,4343.067871,4328.833008,4315.777832,4327.166016,4329.288086,4310.680664,4313.660645,4397.630371,4470.189941,4352.855957,4395.866699,6718.000000,0.000000,4.000000,,,,0.000000,4.000000,4.000000,4.000000,4.000000,4.000000,4.000000,4.000000,4.000000,4.000000,4.000000,4.000000,4.000000,4.000000,4.000000,100.000000,,,,,,,,,,,,,,,,,3.000000,0.000000,0.419139,-0.528809,-0.435852,-0.595581,0.984861,0.071420,0.058357,-33.988708,-31.279640,28.548506,,,,,,,,,,,,,,,,,,,,,,,,,,,,,,,,,,,,,,,,0.000000,0.000000,1.000000,0.000000,128.000000,1.000000,,,,,,,,,,,,,,,,,,,,,,,,,,,,,,,,,,,,,,,,,,,,,,,,,,,,,,,,,,,,,,,,,,,,,,
1717572055.396016,13.000000,1.000000,4331.892090,4330.362305,4319.602051,4341.467773,4327.842773,4314.814453,4326.304199,4328.536621,4309.548828,4313.001953,4396.043457,4468.572266,4351.949707,4394.367676,6768.000000,0.000000,4.000000,,,,0.000000,4.000000,4.000000,4.000000,4.000000,4.000000,4.000000,4.000000,4.000000,4.000000,4.000000,4.000000,4.000000,4.000000,4.000000,100.000000,,,,,,,,,,,,,,,,,,,,,,,,,,,,,,,,,,,,,,,,,,,,,,,,,,,,,,,,,,,,,,,,,,,,,,,,,,,,,,,,,,,,,,,,,,,,,,,,,,,,,,,,,,,,,,,,,,,,,,,,,,,,,,,,,,,,,,,,,,,,,,,
1717572055.403824,14.000000,1.000000,4330.535156,4329.814453,4318.324707,4339.867188,4326.852539,4313.850586,4325.441895,4327.785156,4308.417480,4312.343262,4394.456055,4466.954102,4351.043457,4392.869141,6045.000000,0.000000,4.000000,,,,0.000000,4.000000,4.000000,4.000000,4.000000,4.000000,4.000000,4.000000,4.000000,4.000000,4.000000,4.000000,4.000000,4.000000,4.000000,100.000000,,,,,,,,,,,,,,,,,,,,,,,,,,,,,,,,,,,,,,,,,,,,,,,,,,,,,,,,,,,,,,,,,,,,,,,,,,,,,,,,,,,,,,,,,,,,,,,,,,,,,,,,,,,,,,,,,,,,,,,,,,,,,,,,,,,,,,,,,,,,,,,
1717572055.411632,15.000000,1.000000,4329.177734,4329.266113,4317.046875,4338.267090,4325.862305,4312.886719,4324.580078,4327.033691,4307.285645,4311.684570,4392.869141,4465.335938,4350.137207,4391.370605,5811.000000,0.000000,4.000000,,,,0.000000,4.000000,4.000000,4.000000,4.000000,4.000000,4.000000,4.000000,4.000000,4.000000,4.000000,4.000000,4.000000,4.000000,4.000000,100.000000,,,,,,,,,,,,,,,,,,,,,,,,,,,,,,,,,,,,,,,,,,,,,,,,,,,,,,,,,,,,,,,,,,,,,,,,,,,,,,,,,,,,,,,,,,,,,,,,,,,,,,,,,,,,,,,,,,,,,,,,,,,,,,,,,,,,,,,,,,,,,,,
1717572055.419440,16.000000,0.000000,4327.820313,4328.717773,4315.769043,4336.666504,4324.871582,4311.922852,4323.717773,4326.282227,4306.153809,4311.025879,4391.282227,4463.717773,4349.230957,4389.871582,0.000000,0.000000,4.000000,,,,0.000000,4.000000,4.000000,4.000000,4.000000,4.000000,4.000000,4.000000,4.000000,4.000000,4.000000,4.000000,4.000000,4.000000,4.000000,100.000000,,,,,,,,,,,,,,,,,4.000000,1.000000,0.419204,-0.528870,-0.435883,-0.595459,0.990722,0.072641,0.054694,-34.023407,-31.284332,28.479183,1.000000,0.000000,0.000000,,,,,,,,,,,,,,,,,,,,,,,,,,,,,,,,,,,,,0.000000,0.000000,1.000000,0.000000,128.000000,0.471004,2.129979,0.259581,0.094792,0.057954,0.044787,4.157737,0.370816,0.125995,0.184740,0.152537,2.196438,0.290755,0.126809,0.098640,0.070616,4.107130,0.519007,0.219607,0.096849,0.126515,0.477455,0.103471,0.067461,0.039069,0.040022,1.450248,0.340742,0.213305,0.094296,0.069026,0.901864,0.160290,0.088033,0.037434,0.046771,1.630886,0.270453,0.112548,0.047395,0.050442,5.176901,1.346065,0.710462,0.294957,0.159866,6.620482,1.817997,1.047968,0.437179,0.195930,2.048785,0.579064,0.341561,0.160494,0.110084,3.293247,0.451519,0.170020,0.119619,0.101132,2.207843,0.444181,0.253498,0.095921,0.102476,3.085685,0.356263,0.137725,0.105862,0.083905
1717572055.427248,17.000000,0.000000,4344.230957,4333.589844,4327.692383,4362.179688,4337.563965,4330.384766,4346.410156,4345.384766,4321.538574,4326.794922,4419.615234,4483.205078,4371.794922,4407.563965,0.000000,0.000000,4.000000,,,,0.000000,4.000000,4.000000,4.000000,4.000000,4.000000,4.000000,4.000000,4.000000,4.000000,4.000000,4.000000,4.000000,4.000000,4.000000,100.000000,,,,,,,,,,,,,,,,,,,,,,,,,,,,,,,,,,,,,,,,,,,,,,,,,,,,,,,,,,,,,,,,,,,,,,,,,,,,,,,,,,,,,,,,,,,,,,,,,,,,,,,,,,,,,,,,,,,,,,,,,,,,,,,,,,,,,,,,,,,,,,,
1717572055.435056,18.000000,0.000000,4354.487305,4340.897461,4341.153809,4384.230957,4350.769043,4353.077148,4369.743652,4363.333496,4347.563965,4348.461426,4445.000000,4504.615234,4390.384766,4423.461426,0.000000,0.000000,4.000000,,,,0.000000,4.000000,4.000000,4.000000,4.000000,4.000000,4.000000,4.000000,4.000000,4.000000,4.000000,4.000000,4.000000,4.000000,4.000000,100.000000,,,,,,,,,,,,,,,,,,,,,,,,,,,,,,,,,,,,,,,,,,,,,,,,,,,,,,,,,,,,,,,,,,,,,,,,,,,,,,,,,,,,,,,,,,,,,,,,,,,,,,,,,,,,,,,,,,,,,,,,,,,,,,,,,,,,,,,,,,,,,,,
1717572055.442864,19.000000,0.000000,4333.077148,4342.948730,4323.333496,4349.615234,4334.743652,4331.794922,4346.794922,4341.025879,4329.230957,4325.769043,4411.153809,4474.102539,4355.897461,4393.974121,0.000000,0.000000,4.000000,,,,0.000000,4.000000,4.000000,4.000000,4.000000,4.000000,4.000000,4.000000,4.000000,4.000000,4.000000,4.000000,4.000000,4.000000,4.000000,100.000000,,,,,,,,,,,,,,,,,,,,,,,,,,,,,,,,,,,,,,,,,,,,,,,,,,,,,,,,,,,,,,,,,,,,,,,,,,,,,,,,,,,,,,,,,,,,,,,,,,,,,,,,,,,,,,,,,,,,,,,,,,,,,,,,,,,,,,,,,,,,,,,
1717572055.450672,20.000000,0.000000,4321.410156,4336.538574,4309.102539,4325.000000,4313.205078,4303.077148,4320.128418,4315.128418,4295.384766,4296.153809,4384.743652,4446.538574,4327.692383,4371.025879,0.000000,0.000000,4.000000,,,,0.000000,4.000000,4.000000,4.000000,4.000000,4.000000,4.000000,4.000000,4.000000,4.000000,4.000000,4.000000,4.000000,4.000000,4.000000,100.000000,,,,,,,,,,,,,,,,,5.000000,0.000000,0.419269,-0.528931,-0.435913,-0.595337,0.996582,0.073862,0.051032,-34.058102,-31.289024,28.409861,,,,,,,,,,,,,,,,,,,,,,,,,,,,,,,,,,,,,,,,0.000000,0.000000,1.000000,0.000000,128.000000,0.471004,,,,,,,,,,,,,,,,,,,,,,,,,,,,,,,,,,,,,,,,,,,,,,,,,,,,,,,,,,,,,,,,,,,,,,
1717572055.458480,21.000000,0.000000,4346.282227,4337.692383,4332.307617,4357.179688,4329.358887,4322.948730,4345.769043,4338.205078,4321.538574,4322.436035,4423.589844,4486.282227,4367.051270,4409.230957,0.000000,0.000000,4.000000,,,,0.000000,4.000000,4.000000,4.000000,4.000000,4.000000,4.000000,4.000000,4.000000,4.000000,4.000000,4.000000,4.000000,4.000000,4.000000,100.000000,,,,,,,,,,,,,,,,,,,,,,,,,,,,,,,,,,,,,,,,,,,,,,,,,,,,,,,,,,,,,,,,,,,,,,,,,,,,,,,,,,,,,,,,,,,,,,,,,,,,,,,,,,,,,,,,,,,,,,,,,,,,,,,,,,,,,,,,,,,,,,,
1717572055.466288,22.000000,0.000000,4363.333496,4348.077148,4351.282227,4379.871582,4352.307617,4350.000000,4375.000000,4368.077148,4362.436035,4357.179688,4459.743652,4520.641113,4404.358887,4439.743652,0.000000,0.000000,4.000000,,,,0.000000,4.000000,4.000000,4.000000,4.000000,4.000000,4.000000,4.000000,4.000000,4.000000,4.000000,4.000000,4.000000,4.000000,4.000000,100.000000,,,,,,,,,,,,,,,,,,,,,,,,,,,,,,,,,,,,,,,,,,,,,,,,,,,,,,,,,,,,,,,,,,,,,,,,,,,,,,,,,,,,,,,,,,,,,,,,,,,,,,,,,,,,,,,,,,,,,,,,,,,,,,,,,,,,,,,,,,,,,,,
1717572055.473996,23.000000,1.000000,4364.195313,4349.223633,4351.759277,4380.142578,4351.111328,4348.369141,4373.119629,4365.598145,4359.629395,4354.700684,4459.622559,4520.612305,4404.971680,4439.864746,0.000000,0.000000,4.000000,,,,0.000000,4.000000,4.000000,4.000000,4.000000,4.000000,4.000000,4.000000,4.000000,4.000000,4.000000,4.000000,4.000000,4.000000,4.000000,100.000000,,,,,,,,,,,,,,,,,,,,,,,,,,,,,,,,,,,,,,,,,,,,,,,,,,,,,,,,,,,,,,,,,,,,,,,,,,,,,,,,,,,,,,,,,,,,,,,,,,,,,,,,,,,,,,,,,,,,,,,,,,,,,,,,,,,,,,,,,,,,,,,
1717572055.481804,24.000000,1.000000,4365.057129,4350.370605,4352.236328,4380.413086,4349.914551,4346.737793,4371.239258,4363.119629,4356.823242,4352.222168,4459.501465,4520.583984,4405.583984,4439.985840,0.000000,0.000000,4.000000,,,,0.000000,4.000000,4.000000,4.000000,4.000000,4.000000,4.000000,4.000000,4.000000,4.000000,4.000000,4.000000,4.000000,4.000000,4.000000,100.000000,,,,,,,,,,,,,,,,,6.000000,0.000000,0.419182,-0.528931,-0.435913,-0.595398,0.996582,0.073862,0.051032,-34.035625,-31.260122,28.435541,,,,,,,,,,,,,,,,,,,,,,,,,,,,,,,,,,,,,,,,0.000000,0.000000,1.000000,0.000000,128.000000,0.471004,,,,,,,,,,,,,,,,,,,,,,,,,,,,,,,,,,,,,,,,,,,,,,,,,,,,,,,,,,,,,,,,,,,,,,
1717572055.489612,25.000000,1.000000,4365.918945,4351.517090,4352.713867,4380.683594,4348.717773,4345.106934,4369.358887,4360.641113,4354.017090,4349.743652,4459.380371,4520.555664,4406.196777,4440.106934,0.000000,0.000000,4.000000,,,,0.000000,4.000000,4.000000,4.000000,4.000000,4.000000,4.000000,4.000000,4.000000,4.000000,4.000000,4.000000,4.000000,4.000000,4.000000,100.000000,,,,,,,,,,,,,,,,,,,,,,,,,,,,,,,,,,,,,,,,,,,,,,,,,,,,,,,,,,,,,,,,,,,,,,,,,,,,,,,,,,,,,,,,,,,,,,,,,,,,,,,,,,,,,,,,,,,,,,,,,,,,,,,,,,,,,,,,,,,,,,,
1717572055.497420,26.000000,1.000000,4366.780762,4352.663574,4353.190918,4380.954590,4347.521484,4343.475586,4367.478516,4358.162598,4351.210938,4347.265137,4459.259277,4520.526855,4406.809082,4440.228027,0.000000,0.000000,4.000000,,,,0.000000,4.000000,4.000000,4.000000,4.000000,4.000000,4.000000,4.000000,4.000000,4.000000,4.000000,4.000000,4.000000,4.000000,4.000000,100.000000,,,,,,,,,,,,,,,,,,,,,,,,,,,,,,,,,,,,,,,,,,,,,,,,,,,,,,,,,,,,,,,,,,,,,,,,,,,,,,,,,,,,,,,,,,,,,,,,,,,,,,,,,,,,,,,,,,,,,,,,,,,,,,,,,,,,,,,,,,,,,,,
1717572055.505228,27.000000,1.000000,4367.642578,4353.810547,4353.667969,4381.225098,4346.324707,4341.844727,4365.598145,4355.683594,4348.404785,4344.786133,4459.138184,4520.498535,4407.421875,4440.349121,0.000000,0.000000,4.000000,,,,0.000000,4.000000,4.000000,4.000000,4.000000,4.000000,4.000000,4.000000,4.000000,4.000000,4.000000,4.000000,4.000000,4.000000,4.000000,100.000000,,,,,,,,,,,,,,,,,,,,,,,,,,,,,,,,,,,,,,,,,,,,,,,,,,,,,,,,,,,,,,,,,,,,,,,,,,,,,,,,,,,,,,,,,,,,,,,,,,,,,,,,,,,,,,,,,,,,,,,,,,,,,,,,,,,,,,,,,,,,,,,
1717572055.513036,28.000000,1.000000,4368.504395,4354.957031,4354.145508,4381.495605,4345.128418,4340.213867,4363.717773,4353.205078,4345.598145,4342.307617,4459.017090,4520.470215,4408.034180,4440.470215,0.000000,0.000000,4.000000,,,,0.000000,4.000000,4.000000,4.000000,4.000000,4.000000,4.000000,4.000000,4.000000,4.000000,4.000000,4.000000,4.000000,4.000000,4.000000,100.000000,,,,,,,,,,,,,,,,,7.000000,0.000000,0.419455,-0.528870,-0.435974,-0.595215,1.005372,0.076792,0.059822,-33.821404,-31.314650,28.356972,,,,,,,,,,,,,,,,,,,,,,,,,,,,,,,,,,,,,,,,0.000000,0.000000,1.000000,0.000000,128.000000,0.471004,,,,,,,,,,,,,,,,,,,,,,,,,,,,,,,,,,,,,,,,,,,,,,,,,,,,,,,,,,,,,,,,,,,,,,
1717572055.520844,29.000000,1.000000,4369.366211,4356.104004,4354.622559,4381.766602,4343.931641,4338.582520,4361.837402,4350.726563,4342.791992,4339.829102,4458.895996,4520.441406,4408.646484,4440.591309,0.000000,0.000000,4.000000,,,,0.000000,4.000000,4.000000,4.000000,4.000000,4.000000,4.000000,4.000000,4.000000,4.000000,4.000000,4.000000,4.000000,4.000000,4.000000,100.000000,,,,,,,,,,,,,,,,,,,,,,,,,,,,,,,,,,,,,,,,,,,,,,,,,,,,,,,,,,,,,,,,,,,,,,,,,,,,,,,,,,,,,,,,,,,,,,,,,,,,,,,,,,,,,,,,,,,,,,,,,,,,,,,,,,,,,,,,,,,,,,,
1717572055.528652,30.000000,1.000000,4370.228027,4357.250488,4355.099609,4382.037109,4342.734863,4336.951660,4359.957031,4348.248047,4339.985840,4337.350586,4458.774902,4520.413086,4409.259277,4440.712402,0.000000,0.000000,4.000000,,,,0.000000,4.000000,4.000000,4.000000,4.000000,4.000000,4.000000,4.000000,4.000000,4.000000,4.000000,4.000000,4.000000,4.000000,4.000000,100.000000,,,,,,,,,,,,,,,,,,,,,,,,,,,,,,,,,,,,,,,,,,,,,,,,,,,,,,,,,,,,,,,,,,,,,,,,,,,,,,,,,,,,,,,,,,,,,,,,,,,,,,,,,,,,,,,,,,,,,,,,,,,,,,,,,,,,,,,,,,,,,,,
1717572055.536460,31.000000,1.000000,4371.089844,4358.397461,4355.577148,4382.307617,4341.538574,4335.320313,4358.077148,4345.769043,4337.179688,4334.871582,4458.653809,4520.384766,4409.871582,4440.833496,0.000000,0.000000,4.000000,,,,0.000000,4.000000,4.000000,4.000000,4.000000,4.000000,4.000000,4.000000,4.000000,4.000000,4.000000,4.000000,4.000000,4.000000,4.000000,100.000000,,,,,,,,,,,,,,,,,,,,,,,,,,,,,,,,,,,,,,,,,,,,,,,,,,,,,,,,,,,,,,,,,,,,,,,,,,,,,,,,,,,,,,,,,,,,,,,,,,,,,,,,,,,,,,,,,,,,,,,,,,,,,,,,,,,,,,,,,,,,,,,
1717572055.544268,32.000000,1.000000,4371.951660,4359.543945,4356.054199,4382.578125,4340.341797,4333.689453,4356.196777,4343.290527,4334.373047,4332.393066,4458.532715,4520.355957,4410.484375,4440.954590,0.000000,0.000000,4.000000,,,,0.000000,4.000000,4.000000,4.000000,4.000000,4.000000,4.000000,4.000000,4.000000,4.000000,4.000000,4.000000,4.000000,4.000000,4.000000,100.000000,,,,,,,,,,,,,,,,,8.000000,1.000000,0.419303,-0.529022,-0.435852,-0.595276,1.001221,0.070687,0.060798,-33.770035,-31.329758,28.293894,1.000000,0.000000,0.000000,,,,,,,,,,,,,,,,,,,,,,,,,,,,,,,,,,,,,0.000000,0.000000,1.000000,0.000000,128.000000,0.205550,1.280865,0.210826,0.093837,0.041106,0.054004,2.523690,0.308136,0.092697,0.110913,0.107181,1.556004,0.212711,0.096736,0.064778,0.070966,2.914610,0.495710,0.207379,0.073040,0.118347,0.675328,0.107010,0.053635,0.035890,0.056738,1.144751,0.227587,0.132839,0.061708,0.086958,0.879395,0.103206,0.049989,0.023201,0.062618,1.470674,0.190955,0.066604,0.040813,0.069443,3.394390,0.873589,0.417530,0.182148,0.141758,4.135179,1.111828,0.591216,0.255397,0.149576,1.712317,0.436057,0.286817,0.128225,0.146028,2.597888,0.328812,0.140279,0.091729,0.127354,2.218666,0.339594,0.151439,0.065438,0.155877,2.310380,0.285409,0.137638,0.078134,0.111303
1717572055.552076,33.000000,1.000000,4372.813477,4360.690918,4356.531250,4382.849121,4339.145508,4332.058594,4354.316406,4340.812012,4331.566895,4329.914551,4458.411621,4520.327637,4411.096680,4441.075684,0.000000,0.000000,4.000000,,,,0.000000,4.000000,4.000000,4.000000,4.000000,4.000000,4.000000,4.000000,4.000000,4.000000,4.000000,4.000000,4.000000,4.000000,4.000000,100.000000,,,,,,,,,,,,,,,,,,,,,,,,,,,,,,,,,,,,,,,,,,,,,,,,,,,,,,,,,,,,,,,,,,,,,,,,,,,,,,,,,,,,,,,,,,,,,,,,,,,,,,,,,,,,,,,,,,,,,,,,,,,,,,,,,,,,,,,,,,,,,,,
1717572055.559884,34.000000,1.000000,4373.675293,4361.837402,4357.008789,4383.119629,4337.948730,4330.427246,4352.436035,4338.333496,4328.760742,4327.436035,4458.290527,4520.299316,4411.709473,4441.196777,0.000000,0.000000,4.000000,,,,0.000000,4.000000,4.000000,4.000000,4.000000,4.000000,4.000000,4.000000,4.000000,4.000000,4.000000,4.000000,4.000000,4.000000,4.000000,100.000000,,,,,,,,,,,,,,,,,,,,,,,,,,,,,,,,,,,,,,,,,,,,,,,,,,,,,,,,,,,,,,,,,,,,,,,,,,,,,,,,,,,,,,,,,,,,,,,,,,,,,,,,,,,,,,,,,,,,,,,,,,,,,,,,,,,,,,,,,,,,,,,
1717572055.567692,35.000000,1.000000,4374.537109,4362.984375,4357.485840,4383.390137,4336.751953,4328.796387,4350.555664,4335.854492,4325.954590,4324.957031,4458.169434,4520.270508,4412.321777,4441.317871,0.000000,0.000000,4.000000,,,,0.000000,4.000000,4.000000,4.000000,4.000000,4.000000,4.000000,4.000000,4.000000,4.000000,4.000000,4.000000,4.000000,4.000000,4.000000,100.000000,,,,,,,,,,,,,,,,,,,,,,,,,,,,,,,,,,,,,,,,,,,,,,,,,,,,,,,,,,,,,,,,,,,,,,,,,,,,,,,,,,,,,,,,,,,,,,,,,,,,,,,,,,,,,,,,,,,,,,,,,,,,,,,,,,,,,,,,,,,,,,,
1717572055.575500,36.000000,1.000000,4375.398926,4364.130859,4357.962891,4383.661133,4335.555664,4327.165039,4348.675293,4333.375977,4323.147949,4322.478516,4458.048340,4520.242188,4412.934570,4441.438965,0.000000,0.000000,4.000000,,,,0.000000,4.000000,4.000000,4.000000,4.000000,4.000000,4.000000,4.000000,4.000000,4.000000,4.000000,4.000000,4.000000,4.000000,4.000000,100.000000,,,,,,,,,,,,,,,,,9.000000,0.000000,0.419151,-0.529175,-0.435730,-0.595337,0.997070,0.064583,0.061775,-33.718670,-31.344866,28.230814,,,,,,,,,,,,,,,,,,,,,,,,,,,,,,,,,,,,,,,,0.000000,0.000000,1.000000,0.000000,128.000000,0.205550,,,,,,,,,,,,,,,,,,,,,,,,,,,,,,,,,,,,,,,,,,,,,,,,,,,,,,,,,,,,,,,,,,,,,,
1717572055.583308,37.000000,1.000000,4376.260742,4365.277832,4358.439941,4383.931641,4334.358887,4325.534180,4346.794922,4330.897461,4320.341797,4320.000000,4457.927246,4520.213867,4413.546875,4441.560059,0.000000,0.000000,4.000000,,,,0.000000,4.000000,4.000000,4.000000,4.000000,4.000000,4.000000,4.000000,4.000000,4.000000,4.000000,4.000000,4.000000,4.000000,4.000000,100.000000,,,,,,,,,,,,,,,,,,,,,,,,,,,,,,,,,,,,,,,,,,,,,,,,,,,,,,,,,,,,,,,,,,,,,,,,,,,,,,,,,,,,,,,,,,,,,,,,,,,,,,,,,,,,,,,,,,,,,,,,,,,,,,,,,,,,,,,,,,,,,,,
1717572055.591116,38.000000,1.000000,4377.122559,4366.424316,4358.917480,4384.202148,4333.162598,4323.903320,4344.914551,4328.418945,4317.535645,4317.521484,4457.806152,4520.185059,4414.159668,4441.681152,0.000000,0.000000,4.000000,,,,0.000000,4.000000,4.000000,4.000000,4.000000,4.000000,4.000000,4.000000,4.000000,4.000000,4.000000,4.000000,4.000000,4.000000,4.000000,100.000000,,,,,,,,,,,,,,,,,,,,,,,,,,,,,,,,,,,,,,,,,,,,,,,,,,,,,,,,,,,,,,,,,,,,,,,,,,,,,,,,,,,,,,,,,,,,,,,,,,,,,,,,,,,,,,,,,,,,,,,,,,,,,,,,,,,,,,,,,,,,,,,
1717572055.598923,39.000000,1.000000,4377.984375,4367.571289,4359.394531,4384.473145,4331.965820,4322.271973,4343.034180,4325.939941,4314.729492,4315.042969,4457.685059,4520.156738,4414.771973,4441.801758,0.000000,0.000000,4.000000,,,,0.000000,4.000000,4.000000,4.000000,4.000000,4.000000,4.000000,4.000000,4.000000,4.000000,4.000000,4.000000,4.000000,4.000000,4.000000,100.000000,,,,,,,,,,,,,,,,,,,,,,,,,,,,,,,,,,,,,,,,,,,,,,,,,,,,,,,,,,,,,,,,,,,,,,,,,,,,,,,,,,,,,,,,,,,,,,,,,,,,,,,,,,,,,,,,,,,,,,,,,,,,,,,,,,,,,,,,,,,,,,,
1717572055.606731,40.000000,0.000000,4378.846191,4368.717773,4359.871582,4384.743652,4330.769043,4320.641113,4341.153809,4323.461426,4311.922852,4312.563965,4457.563965,4520.128418,4415.384766,4441.922852,0.000000,0.000000,4.000000,,,,0.000000,4.000000,4.000000,4.000000,4.000000,4.000000,4.000000,4.000000,4.000000,4.000000,4.000000,4.000000,4.000000,4.000000,4.000000,100.000000,,,,,,,,,,,,,,,,,10.000000,0.000000,0.419151,-0.529175,-0.435730,-0.595337,0.992675,0.057258,0.054938,-33.730137,-31.310379,28.074400,,,,,,,,,,,,,,,,,,,,,,,,,,,,,,,,,,,,,,,,0.000000,0.000000,1.000000,0.000000,128.000000,0.205550,,,,,,,,,,,,,,,,,,,,,,,,,,,,,,,,,,,,,,,,,,,,,,,,,,,,,,,,,,,,,,,,,,,,,,
1717572055.614440,41.000000,0.000000,4392.820313,4385.512695,4371.282227,4400.897461,4346.153809,4331.922852,4363.461426,4346.538574,4332.820313,4333.077148,4480.897461,4537.307617,4430.641113,4458.589844,0.000000,0.000000,4.000000,,,,0.000000,4.000000,4.000000,4.000000,4.000000,4.000000,4.000000,4.000000,4.000000,4.000000,4.000000,4.000000,4.000000,4.000000,4.000000,100.000000,,,,,,,,,,,,,,,,,,,,,,,,,,,,,,,,,,,,,,,,,,,,,,,,,,,,,,,,,,,,,,,,,,,,,,,,,,,,,,,,,,,,,,,,,,,,,,,,,,,,,,,,,,,,,,,,,,,,,,,,,,,,,,,,,,,,,,,,,,,,,,,
