title:8-june5-II-pm-live, start timestamp:1717572952.208412, stop timestamp:1717572959.662410, headset type:EPOCX, headset serial:E50208D9, headset firmware:730, channels:182, sampling rate:eeg_128;mot_32;mc_8;pm_0.1;fe_32;pow_8, samples:955       , version:2.2, 
Timestamp,EEG.Counter,EEG.Interpolated,EEG.AF3,EEG.F7,EEG.F3,EEG.FC5,EEG.T7,EEG.P7,EEG.O1,EEG.O2,EEG.P8,EEG.T8,EEG.FC6,EEG.F4,EEG.F8,EEG.AF4,EEG.RawCq,EEG.Battery,EEG.BatteryPercent,MarkerIndex,MarkerType,MarkerValueInt,EEG.MarkerHardware,CQ.AF3,CQ.F7,CQ.F3,CQ.FC5,CQ.T7,CQ.P7,CQ.O1,CQ.O2,CQ.P8,CQ.T8,CQ.FC6,CQ.F4,CQ.F8,CQ.AF4,CQ.Overall,EQ.SampleRateQuality,EQ.OVERALL,EQ.AF3,EQ.F7,EQ.F3,EQ.FC5,EQ.T7,EQ.P7,EQ.O1,EQ.O2,EQ.P8,EQ.T8,EQ.FC6,EQ.F4,EQ.F8,EQ.AF4,MOT.CounterMems,MOT.InterpolatedMems,MOT.Q0,MOT.Q1,MOT.Q2,MOT.Q3,MOT.AccX,MOT.AccY,MOT.AccZ,MOT.MagX,MOT.MagY,MOT.MagZ,MC.Action,MC.ActionPower,MC.IsActive,PM.Attention.IsActive,PM.Attention.Scaled,PM.Attention.Raw,PM.Attention.Min,PM.Attention.Max,PM.Engagement.IsActive,PM.Engagement.Scaled,PM.Engagement.Raw,PM.Engagement.Min,PM.Engagement.Max,PM.Excitement.IsActive,PM.Excitement.Scaled,PM.Excitement.Raw,PM.Excitement.Min,PM.Excitement.Max,PM.LongTermExcitement,PM.Stress.IsActive,PM.Stress.Scaled,PM.Stress.Raw,PM.Stress.Min,PM.Stress.Max,PM.Relaxation.IsActive,PM.Relaxation.Scaled,PM.Relaxation.Raw,PM.Relaxation.Min,PM.Relaxation.Max,PM.Interest.IsActive,PM.Interest.Scaled,PM.Interest.Raw,PM.Interest.Min,PM.Interest.Max,PM.Focus.IsActive,PM.Focus.Scaled,PM.Focus.Raw,PM.Focus.Min,PM.Focus.Max,FE.BlinkWink,FE.HorizontalEyesDirection,FE.UpperFaceAction,FE.UpperFaceActionPower,FE.LowerFaceAction,FE.LowerFaceActionPower,POW.AF3.Theta,POW.AF3.Alpha,POW.AF3.BetaL,POW.AF3.BetaH,POW.AF3.Gamma,POW.F7.Theta,POW.F7.Alpha,POW.F7.BetaL,POW.F7.BetaH,POW.F7.Gamma,POW.F3.Theta,POW.F3.Alpha,POW.F3.BetaL,POW.F3.BetaH,POW.F3.Gamma,POW.FC5.Theta,POW.FC5.Alpha,POW.FC5.BetaL,POW.FC5.BetaH,POW.FC5.Gamma,POW.T7.Theta,POW.T7.Alpha,POW.T7.BetaL,POW.T7.BetaH,POW.T7.Gamma,POW.P7.Theta,POW.P7.Alpha,POW.P7.BetaL,POW.P7.BetaH,POW.P7.Gamma,POW.O1.Theta,POW.O1.Alpha,POW.O1.BetaL,POW.O1.BetaH,POW.O1.Gamma,POW.O2.Theta,POW.O2.Alpha,POW.O2.BetaL,POW.O2.BetaH,POW.O2.Gamma,POW.P8.Theta,POW.P8.Alpha,POW.P8.BetaL,POW.P8.BetaH,POW.P8.Gamma,POW.T8.Theta,POW.T8.Alpha,POW.T8.BetaL,POW.T8.BetaH,POW.T8.Gamma,POW.FC6.Theta,POW.FC6.Alpha,POW.FC6.BetaL,POW.FC6.BetaH,POW.FC6.Gamma,POW.F4.Theta,POW.F4.Alpha,POW.F4.BetaL,POW.F4.BetaH,POW.F4.Gamma,POW.F8.Theta,POW.F8.Alpha,POW.F8.BetaL,POW.F8.BetaH,POW.F8.Gamma,POW.AF4.Theta,POW.AF4.Alpha,POW.AF4.BetaL,POW.AF4.BetaH,POW.AF4.Gamma
1717572952.208412,68.000000,0.000000,4300.256348,4338.461426,4276.282227,4420.897461,4217.820313,4291.538574,4290.641113,4284.358887,4295.769043,4355.384766,4389.102539,4441.025879,4400.897461,4331.025879,5187.000000,0.000000,1.000000,,,,0.000000,4.000000,4.000000,4.000000,4.000000,4.000000,4.000000,4.000000,4.000000,4.000000,4.000000,4.000000,4.000000,4.000000,4.000000,100.000000,,,,,,,,,,,,,,,,,,,,,,,,,,,,,1.000000,0.000000,0.000000,,,,,,,,,,,,,,,,,,,,,,,,,,,,,,,,,,,,,0.000000,0.000000,64.000000,0.163658,1.000000,0.000000,0.623465,0.127276,0.105532,0.034889,0.010268,1.071411,0.516968,0.200510,0.068248,0.035429,0.483043,0.104042,0.112871,0.041185,0.014446,0.816721,0.206181,0.315233,0.110575,0.044958,0.622525,0.309324,0.152379,0.042203,0.016199,0.817826,0.208586,0.098368,0.046332,0.026897,1.060915,0.155246,0.107478,0.076179,0.040942,0.353014,0.122826,0.104340,0.061375,0.024076,0.733070,0.286540,0.120984,0.075879,0.044594,0.870719,0.261083,0.095927,0.067573,0.034208,1.183993,0.413319,0.222716,0.098208,0.037535,1.313488,0.322738,0.229182,0.097421,0.034506,0.968275,0.354919,0.224473,0.080354,0.027792,1.051826,0.231008,0.165188,0.081591,0.024223
1717572952.216520,69.000000,1.000000,4306.592285,4344.959473,4281.390137,4421.065918,4226.848633,4293.893555,4294.298340,4287.260254,4300.809570,4360.168457,4397.300781,4449.365723,4400.263184,4339.973145,5417.000000,0.000000,1.000000,,,,0.000000,4.000000,4.000000,4.000000,4.000000,4.000000,4.000000,4.000000,4.000000,4.000000,4.000000,4.000000,4.000000,4.000000,4.000000,100.000000,,,,,,,,,,,,,,,,,,,,,,,,,,,,,,,,,,,,,,,,,,,,,,,,,,,,,,,,,,,,,,,,,,,,,,,,,,,,,,,,,,,,,,,,,,,,,,,,,,,,,,,,,,,,,,,,,,,,,,,,,,,,,,,,,,,,,,,,,,,,,,,
1717572952.224328,70.000000,1.000000,4312.928711,4351.457520,4286.498047,4421.234863,4235.876953,4296.248535,4297.955566,4290.162109,4305.850098,4364.952637,4405.499512,4457.705566,4399.628906,4348.920410,5180.000000,0.000000,1.000000,,,,0.000000,4.000000,4.000000,4.000000,4.000000,4.000000,4.000000,4.000000,4.000000,4.000000,4.000000,4.000000,4.000000,4.000000,4.000000,100.000000,,,,,,,,,,,,,,,,,,,,,,,,,,,,,,,,,,,,,,,,,,,,,,,,,,,,,,,,,,,,,,,,,,,,,,,,,,,,,,,,,,,,,,,,,,,,,,,,,,,,,,,,,,,,,,,,,,,,,,,,,,,,,,,,,,,,,,,,,,,,,,,
1717572952.232136,71.000000,1.000000,4319.264648,4357.955566,4291.605957,4421.403320,4244.905762,4298.603027,4301.612793,4293.063477,4310.890625,4369.736816,4413.697754,4466.045898,4398.994629,4357.867676,4363.000000,0.000000,1.000000,,,,0.000000,4.000000,4.000000,4.000000,4.000000,4.000000,4.000000,4.000000,4.000000,4.000000,4.000000,4.000000,4.000000,4.000000,4.000000,100.000000,,,,,,,,,,,,,,,,,,,,,,,,,,,,,,,,,,,,,,,,,,,,,,,,,,,,,,,,,,,,,,,,,,,,,,,,,,,,,,,,,,,,,,,,,,,,,,,,,,,,,,,,,,,,,,,,,,,,,,,,,,,,,,,,,,,,,,,,,,,,,,,
1717572952.239944,72.000000,1.000000,4325.600586,4364.453613,4296.713867,4421.572266,4253.934082,4300.958008,4305.270020,4295.964844,4315.931152,4374.520996,4421.895996,4474.385742,4398.360352,4366.814941,5110.000000,0.000000,1.000000,,,,0.000000,4.000000,4.000000,4.000000,4.000000,4.000000,4.000000,4.000000,4.000000,4.000000,4.000000,4.000000,4.000000,4.000000,4.000000,100.000000,,,,,,,,,,,,,,,,,,,,,,,,,,,,,,,,,,,,,,,,,,,,,,,,,,,,,,,,,,,,,,,,,,,,0.000000,0.000000,64.000000,0.163658,1.000000,0.000000,,,,,,,,,,,,,,,,,,,,,,,,,,,,,,,,,,,,,,,,,,,,,,,,,,,,,,,,,,,,,,,,,,,,,,
1717572952.247752,73.000000,1.000000,4331.936523,4370.951660,4301.821777,4421.740723,4262.962402,4303.312988,4308.927246,4298.866211,4320.971680,4379.305176,4430.094238,4482.726074,4397.726074,4375.762695,4552.000000,0.000000,1.000000,,,,0.000000,4.000000,4.000000,4.000000,4.000000,4.000000,4.000000,4.000000,4.000000,4.000000,4.000000,4.000000,4.000000,4.000000,4.000000,100.000000,,,,,,,,,,,,,,,,,,,,,,,,,,,,,,,,,,,,,,,,,,,,,,,,,,,,,,,,,,,,,,,,,,,,,,,,,,,,,,,,,,,,,,,,,,,,,,,,,,,,,,,,,,,,,,,,,,,,,,,,,,,,,,,,,,,,,,,,,,,,,,,
1717572952.255559,74.000000,1.000000,4338.272461,4377.449219,4306.929688,4421.909668,4271.990723,4305.667969,4312.584473,4301.768066,4326.012207,4384.088867,4438.292969,4491.065918,4397.091797,4384.709961,6020.000000,0.000000,1.000000,,,,0.000000,4.000000,4.000000,4.000000,4.000000,4.000000,4.000000,4.000000,4.000000,4.000000,4.000000,4.000000,4.000000,4.000000,4.000000,100.000000,,,,,,,,,,,,,,,,,,,,,,,,,,,,,,,,,,,,,,,,,,,,,,,,,,,,,,,,,,,,,,,,,,,,,,,,,,,,,,,,,,,,,,,,,,,,,,,,,,,,,,,,,,,,,,,,,,,,,,,,,,,,,,,,,,,,,,,,,,,,,,,
1717572952.263367,75.000000,1.000000,4344.608398,4383.947266,4312.037598,4422.078125,4281.019043,4308.022949,4316.241699,4304.669434,4331.052734,4388.873047,4446.491211,4499.406250,4396.457520,4393.657227,5796.000000,0.000000,1.000000,,,,0.000000,4.000000,4.000000,4.000000,4.000000,4.000000,4.000000,4.000000,4.000000,4.000000,4.000000,4.000000,4.000000,4.000000,4.000000,100.000000,,,,,,,,,,,,,,,,,,,,,,,,,,,,,,,,,,,,,,,,,,,,,,,,,,,,,,,,,,,,,,,,,,,,,,,,,,,,,,,,,,,,,,,,,,,,,,,,,,,,,,,,,,,,,,,,,,,,,,,,,,,,,,,,,,,,,,,,,,,,,,,
1717572952.271175,76.000000,1.000000,4350.944824,4390.445313,4317.145508,4422.247070,4290.047363,4310.377930,4319.898926,4307.570801,4336.093262,4393.657227,4454.689453,4507.746094,4395.823242,4402.604492,6626.000000,0.000000,1.000000,,,,0.000000,4.000000,4.000000,4.000000,4.000000,4.000000,4.000000,4.000000,4.000000,4.000000,4.000000,4.000000,4.000000,4.000000,4.000000,100.000000,,,,,,,,,,,,,,,,,19.000000,0.000000,0.435845,-0.571777,-0.324341,-0.614746,0.975583,-0.048712,0.137956,-29.302660,-34.255638,23.252024,,,,,,,,,,,,,,,,,,,,,,,,,,,,,,,,,,,,,,,,0.000000,0.000000,64.000000,0.163658,1.000000,0.000000,,,,,,,,,,,,,,,,,,,,,,,,,,,,,,,,,,,,,,,,,,,,,,,,,,,,,,,,,,,,,,,,,,,,,,
1717572952.278983,77.000000,1.000000,4357.280762,4396.943359,4322.253906,4422.415527,4299.075684,4312.732910,4323.556152,4310.472168,4341.133789,4398.441406,4462.888184,4516.086426,4395.188965,4411.551758,6631.000000,0.000000,1.000000,,,,0.000000,4.000000,4.000000,4.000000,4.000000,4.000000,4.000000,4.000000,4.000000,4.000000,4.000000,4.000000,4.000000,4.000000,4.000000,100.000000,,,,,,,,,,,,,,,,,,,,,,,,,,,,,,,,,,,,,,,,,,,,,,,,,,,,,,,,,,,,,,,,,,,,,,,,,,,,,,,,,,,,,,,,,,,,,,,,,,,,,,,,,,,,,,,,,,,,,,,,,,,,,,,,,,,,,,,,,,,,,,,
1717572952.286791,78.000000,1.000000,4363.616699,4403.441406,4327.361816,4422.584473,4308.104004,4315.087891,4327.213379,4313.374023,4346.174316,4403.225586,4471.086426,4524.426270,4394.554688,4420.499512,6017.000000,0.000000,1.000000,,,,0.000000,4.000000,4.000000,4.000000,4.000000,4.000000,4.000000,4.000000,4.000000,4.000000,4.000000,4.000000,4.000000,4.000000,4.000000,100.000000,,,,,,,,,,,,,,,,,,,,,,,,,,,,,,,,,,,,,,,,,,,,,,,,,,,,,,,,,,,,,,,,,,,,,,,,,,,,,,,,,,,,,,,,,,,,,,,,,,,,,,,,,,,,,,,,,,,,,,,,,,,,,,,,,,,,,,,,,,,,,,,
1717572952.294599,79.000000,1.000000,4369.952637,4409.939453,4332.469727,4422.752930,4317.132324,4317.442871,4330.870605,4316.275391,4351.214355,4408.009277,4479.284668,4532.766602,4393.920410,4429.446777,5796.000000,0.000000,1.000000,,,,0.000000,4.000000,4.000000,4.000000,4.000000,4.000000,4.000000,4.000000,4.000000,4.000000,4.000000,4.000000,4.000000,4.000000,4.000000,100.000000,,,,,,,,,,,,,,,,,,,,,,,,,,,,,,,,,,,,,,,,,,,,,,,,,,,,,,,,,,,,,,,,,,,,,,,,,,,,,,,,,,,,,,,,,,,,,,,,,,,,,,,,,,,,,,,,,,,,,,,,,,,,,,,,,,,,,,,,,,,,,,,
1717572952.302407,80.000000,1.000000,4376.288574,4416.437012,4337.577637,4422.921875,4326.160645,4319.797363,4334.527832,4319.176758,4356.254883,4412.793457,4487.482910,4541.106445,4393.286133,4438.394043,5608.894531,0.000000,1.000000,,,,0.000000,4.000000,4.000000,4.000000,4.000000,4.000000,4.000000,4.000000,4.000000,4.000000,4.000000,4.000000,4.000000,4.000000,4.000000,100.000000,,,,,,,,,,,,,,,,,20.000000,0.000000,0.435186,-0.572083,-0.324341,-0.614929,0.975583,-0.048712,0.137956,-29.523489,-34.333733,23.375807,,,,,,,,,,,,,,,,,,,,,,,,,,,,,,,,,,,,,,,,0.000000,0.000000,64.000000,0.163658,1.000000,0.000000,,,,,,,,,,,,,,,,,,,,,,,,,,,,,,,,,,,,,,,,,,,,,,,,,,,,,,,,,,,,,,,,,,,,,,
1717572952.310215,81.000000,1.000000,4382.625000,4422.935059,4342.685547,4423.090332,4335.188965,4322.152344,4338.185059,4322.078125,4361.295410,4417.577637,4495.681641,4549.446777,4392.651855,4447.341309,5644.052734,0.000000,1.000000,,,,0.000000,4.000000,4.000000,4.000000,4.000000,4.000000,4.000000,4.000000,4.000000,4.000000,4.000000,4.000000,4.000000,4.000000,4.000000,100.000000,,,,,,,,,,,,,,,,,,,,,,,,,,,,,,,,,,,,,,,,,,,,,,,,,,,,,,,,,,,,,,,,,,,,,,,,,,,,,,,,,,,,,,,,,,,,,,,,,,,,,,,,,,,,,,,,,,,,,,,,,,,,,,,,,,,,,,,,,,,,,,,
1717572952.318023,82.000000,1.000000,4388.960938,4429.433105,4347.793457,4423.259277,4344.217285,4324.507324,4341.842285,4324.979980,4366.335938,4422.361816,4503.879883,4557.786621,4392.017578,4456.288574,5679.210449,0.000000,1.000000,,,,0.000000,4.000000,4.000000,4.000000,4.000000,4.000000,4.000000,4.000000,4.000000,4.000000,4.000000,4.000000,4.000000,4.000000,4.000000,100.000000,,,,,,,,,,,,,,,,,,,,,,,,,,,,,,,,,,,,,,,,,,,,,,,,,,,,,,,,,,,,,,,,,,,,,,,,,,,,,,,,,,,,,,,,,,,,,,,,,,,,,,,,,,,,,,,,,,,,,,,,,,,,,,,,,,,,,,,,,,,,,,,
1717572952.325831,83.000000,1.000000,4395.296875,4435.931152,4352.901367,4423.427734,4353.245605,4326.862305,4345.499512,4327.881348,4371.376465,4427.145508,4512.078125,4566.126953,4391.383301,4465.236328,5714.368652,0.000000,1.000000,,,,0.000000,4.000000,4.000000,4.000000,4.000000,4.000000,4.000000,4.000000,4.000000,4.000000,4.000000,4.000000,4.000000,4.000000,4.000000,100.000000,,,,,,,,,,,,,,,,,,,,,,,,,,,,,,,,,,,,,,,,,,,,,,,,,,,,,,,,,,,,,,,,,,,,,,,,,,,,,,,,,,,,,,,,,,,,,,,,,,,,,,,,,,,,,,,,,,,,,,,,,,,,,,,,,,,,,,,,,,,,,,,
1717572952.333639,84.000000,1.000000,4401.632813,4442.429199,4358.009277,4423.596680,4362.273926,4329.217285,4349.156738,4330.782715,4376.416992,4431.929688,4520.276855,4574.466797,4390.749023,4474.183594,5749.526367,0.000000,1.000000,,,,0.000000,4.000000,4.000000,4.000000,4.000000,4.000000,4.000000,4.000000,4.000000,4.000000,4.000000,4.000000,4.000000,4.000000,4.000000,100.000000,,,,,,,,,,,,,,,,,21.000000,0.000000,0.437308,-0.570923,-0.325378,-0.613953,0.961421,-0.097058,0.120376,-29.295094,-34.550594,23.457783,1.000000,0.000000,0.000000,,,,,,,,,,,,,,,,,,,,,,,,,,,,,,,,,,,,,0.000000,0.000000,64.000000,0.087363,1.000000,0.000000,0.524163,0.138770,0.107343,0.034918,0.011440,0.709026,0.407340,0.153017,0.048481,0.023157,0.452360,0.114723,0.120205,0.044613,0.015910,0.621038,0.161888,0.277406,0.094902,0.037268,0.581152,0.246399,0.124290,0.033186,0.015935,0.735806,0.156136,0.082684,0.036245,0.021546,0.964552,0.116237,0.114153,0.064323,0.034620,0.382910,0.113427,0.115948,0.059946,0.025325,0.671764,0.237190,0.118753,0.067064,0.039605,0.613948,0.209529,0.084036,0.068322,0.033735,1.079951,0.392679,0.225318,0.095442,0.039298,0.999132,0.304974,0.215224,0.086175,0.034246,0.687146,0.349470,0.219426,0.077830,0.028675,0.709216,0.250635,0.161570,0.072283,0.024271
1717572952.341447,85.000000,1.000000,4407.968750,4448.927246,4363.117188,4423.765137,4371.302246,4331.572266,4352.813965,4333.684082,4381.457520,4436.713867,4528.475098,4582.807129,4390.114746,4483.130859,5784.684082,0.000000,1.000000,,,,0.000000,4.000000,4.000000,4.000000,4.000000,4.000000,4.000000,4.000000,4.000000,4.000000,4.000000,4.000000,4.000000,4.000000,4.000000,100.000000,,,,,,,,,,,,,,,,,,,,,,,,,,,,,,,,,,,,,,,,,,,,,,,,,,,,,,,,,,,,,,,,,,,,,,,,,,,,,,,,,,,,,,,,,,,,,,,,,,,,,,,,,,,,,,,,,,,,,,,,,,,,,,,,,,,,,,,,,,,,,,,
1717572952.349255,86.000000,1.000000,4414.305176,4455.425293,4368.225586,4423.934082,4380.330566,4333.927246,4356.471191,4336.585938,4386.498047,4441.498047,4536.673340,4591.146973,4389.480469,4492.078125,5819.842285,0.000000,1.000000,,,,0.000000,4.000000,4.000000,4.000000,4.000000,4.000000,4.000000,4.000000,4.000000,4.000000,4.000000,4.000000,4.000000,4.000000,4.000000,100.000000,,,,,,,,,,,,,,,,,,,,,,,,,,,,,,,,,,,,,,,,,,,,,,,,,,,,,,,,,,,,,,,,,,,,,,,,,,,,,,,,,,,,,,,,,,,,,,,,,,,,,,,,,,,,,,,,,,,,,,,,,,,,,,,,,,,,,,,,,,,,,,,
1717572952.357063,87.000000,0.000000,4420.641113,4461.922852,4373.333496,4424.102539,4389.358887,4336.282227,4360.128418,4339.487305,4391.538574,4446.282227,4544.871582,4599.487305,4388.846191,4501.025879,5855.000000,0.000000,1.000000,,,,0.000000,4.000000,4.000000,4.000000,4.000000,4.000000,4.000000,4.000000,4.000000,4.000000,4.000000,4.000000,4.000000,4.000000,4.000000,100.000000,,,,,,,,,,,,,,,,,,,,,,,,,,,,,,,,,,,,,,,,,,,,,,,,,,,,,,,,,,,,,,,,,,,,,,,,,,,,,,,,,,,,,,,,,,,,,,,,,,,,,,,,,,,,,,,,,,,,,,,,,,,,,,,,,,,,,,,,,,,,,,,
1717572952.364871,88.000000,0.000000,4434.230957,4384.615234,4386.794922,4494.871582,4396.922852,4345.769043,4375.256348,4356.282227,4415.897461,4460.769043,4567.948730,4622.179688,4403.333496,4517.820313,6636.000000,0.000000,1.000000,,,,0.000000,4.000000,4.000000,4.000000,4.000000,4.000000,4.000000,4.000000,4.000000,4.000000,4.000000,4.000000,4.000000,4.000000,4.000000,100.000000,,,,,,,,,,,,,,,,,22.000000,1.000000,0.438350,-0.570679,-0.325897,-0.613159,0.944085,-0.094128,0.121353,-29.202051,-34.657654,23.474470,,,,,,,,,,,,,,,,,,,,,,,,,,,,,,,,,,,,,,,,0.000000,0.000000,64.000000,0.087363,1.000000,0.000000,,,,,,,,,,,,,,,,,,,,,,,,,,,,,,,,,,,,,,,,,,,,,,,,,,,,,,,,,,,,,,,,,,,,,,
1717572952.372779,89.000000,1.000000,4421.461426,4373.230957,4375.102539,4462.717773,4394.666504,4339.410156,4366.384766,4351.077148,4411.436035,4458.461426,4555.358887,4605.769043,4391.051270,4503.512695,6646.000000,0.000000,1.000000,,,,0.000000,4.000000,4.000000,4.000000,4.000000,4.000000,4.000000,4.000000,4.000000,4.000000,4.000000,4.000000,4.000000,4.000000,4.000000,100.000000,,,,,,,,,,,,,,,,,,,,,,,,,,,,,,,,,,,,,,,,,,,,,,,,,,,,,,,,,,,,,,,,,,,,,,,,,,,,,,,,,,,,,,,,,,,,,,,,,,,,,,,,,,,,,,,,,,,,,,,,,,,,,,,,,,,,,,,,,,,,,,,
1717572952.380587,90.000000,1.000000,4408.692383,4361.846191,4363.410156,4430.563965,4392.410156,4333.051270,4357.512695,4345.871582,4406.974121,4456.153809,4542.769043,4589.358887,4378.769043,4489.205078,6656.000000,0.000000,1.000000,,,,0.000000,4.000000,4.000000,4.000000,4.000000,4.000000,4.000000,4.000000,4.000000,4.000000,4.000000,4.000000,4.000000,4.000000,4.000000,100.000000,,,,,,,,,,,,,,,,,,,,,,,,,,,,,,,,,,,,,,,,,,,,,,,,,,,,,,,,,,,,,,,,,,,,,,,,,,,,,,,,,,,,,,,,,,,,,,,,,,,,,,,,,,,,,,,,,,,,,,,,,,,,,,,,,,,,,,,,,,,,,,,
1717572952.388395,91.000000,1.000000,4395.922852,4350.461426,4351.717773,4398.410156,4390.153809,4326.692383,4348.641113,4340.666504,4402.512695,4453.846191,4530.179688,4572.948730,4366.487305,4474.897461,6666.000000,0.000000,1.000000,,,,0.000000,4.000000,4.000000,4.000000,4.000000,4.000000,4.000000,4.000000,4.000000,4.000000,4.000000,4.000000,4.000000,4.000000,4.000000,100.000000,,,,,,,,,,,,,,,,,,,,,,,,,,,,,,,,,,,,,,,,,,,,,,,,,,,,,,,,,,,,,,,,,,,,,,,,,,,,,,,,,,,,,,,,,,,,,,,,,,,,,,,,,,,,,,,,,,,,,,,,,,,,,,,,,,,,,,,,,,,,,,,
1717572952.396203,92.000000,1.000000,4383.153809,4339.077148,4340.025879,4366.256348,4387.897461,4320.333496,4339.769043,4335.461426,4398.051270,4451.538574,4517.589844,4556.538574,4354.205078,4460.589844,6676.000000,0.000000,1.000000,,,,0.000000,4.000000,4.000000,4.000000,4.000000,4.000000,4.000000,4.000000,4.000000,4.000000,4.000000,4.000000,4.000000,4.000000,4.000000,100.000000,,,,,,,,,,,,,,,,,23.000000,0.000000,0.439392,-0.570435,-0.326416,-0.612366,0.926749,-0.091198,0.122329,-29.109009,-34.764717,23.491156,,,,,,,,,,,,,,,,,,,,,,,,,,,,,,,,,,,,,,,,0.000000,0.000000,64.000000,0.087363,1.000000,0.000000,,,,,,,,,,,,,,,,,,,,,,,,,,,,,,,,,,,,,,,,,,,,,,,,,,,,,,,,,,,,,,,,,,,,,,
1717572952.404011,93.000000,0.000000,4370.384766,4327.692383,4328.333496,4334.102539,4385.641113,4313.974121,4330.897461,4330.256348,4393.589844,4449.230957,4505.000000,4540.128418,4341.922852,4446.282227,6686.000000,0.000000,1.000000,,,,0.000000,4.000000,4.000000,4.000000,4.000000,4.000000,4.000000,4.000000,4.000000,4.000000,4.000000,4.000000,4.000000,4.000000,4.000000,100.000000,,,,,,,,,,,,,,,,,,,,,,,,,,,,,,,,,,,,,,,,,,,,,,,,,,,,,,,,,,,,,,,,,,,,,,,,,,,,,,,,,,,,,,,,,,,,,,,,,,,,,,,,,,,,,,,,,,,,,,,,,,,,,,,,,,,,,,,,,,,,,,,
1717572952.411819,94.000000,1.000000,4372.282227,4333.487305,4330.820313,4340.615234,4387.743652,4323.615234,4340.410156,4336.000000,4400.102539,4454.307617,4509.615234,4543.666504,4342.077148,4447.333496,6567.200195,0.000000,1.000000,,,,0.000000,4.000000,4.000000,4.000000,4.000000,4.000000,4.000000,4.000000,4.000000,4.000000,4.000000,4.000000,4.000000,4.000000,4.000000,100.000000,,,,,,,,,,,,,,,,,,,,,,,,,,,,,,,,,,,,,,,,,,,,,,,,,,,,,,,,,,,,,,,,,,,,,,,,,,,,,,,,,,,,,,,,,,,,,,,,,,,,,,,,,,,,,,,,,,,,,,,,,,,,,,,,,,,,,,,,,,,,,,,
1717572952.419627,95.000000,1.000000,4374.179688,4339.282227,4333.307617,4347.128418,4389.846191,4333.256348,4349.922852,4341.743652,4406.615234,4459.384766,4514.230957,4547.205078,4342.230957,4448.384766,6448.399902,0.000000,1.000000,,,,0.000000,4.000000,4.000000,4.000000,4.000000,4.000000,4.000000,4.000000,4.000000,4.000000,4.000000,4.000000,4.000000,4.000000,4.000000,100.000000,,,,,,,,,,,,,,,,,,,,,,,,,,,,,,,,,,,,,,,,,,,,,,,,,,,,,,,,,,,,,,,,,,,,,,,,,,,,,,,,,,,,,,,,,,,,,,,,,,,,,,,,,,,,,,,,,,,,,,,,,,,,,,,,,,,,,,,,,,,,,,,
1717572952.427435,96.000000,1.000000,4376.077148,4345.077148,4335.794922,4353.641113,4391.948730,4342.897461,4359.436035,4347.487305,4413.128418,4464.461426,4518.846191,4550.743652,4342.384766,4449.436035,6329.600098,0.000000,1.000000,,,,0.000000,4.000000,4.000000,4.000000,4.000000,4.000000,4.000000,4.000000,4.000000,4.000000,4.000000,4.000000,4.000000,4.000000,4.000000,100.000000,,,,,,,,,,,,,,,,,24.000000,0.000000,0.441528,-0.568665,-0.326965,-0.612183,0.980955,-0.076059,0.121841,-28.583437,-34.727734,23.732866,,,,,,,,,,,,,,,,,,,,,,,,,,,,,,,,,,,,,,,,10.000000,0.000000,64.000000,0.087363,1.000000,0.000000,,,,,,,,,,,,,,,,,,,,,,,,,,,,,,,,,,,,,,,,,,,,,,,,,,,,,,,,,,,,,,,,,,,,,,
1717572952.435243,97.000000,1.000000,4377.974121,4350.871582,4338.282227,4360.153809,4394.051270,4352.538574,4368.948730,4353.230957,4419.641113,4469.538574,4523.461426,4554.282227,4342.538574,4450.487305,6210.799805,0.000000,1.000000,,,,0.000000,4.000000,4.000000,4.000000,4.000000,4.000000,4.000000,4.000000,4.000000,4.000000,4.000000,4.000000,4.000000,4.000000,4.000000,100.000000,,,,,,,,,,,,,,,,,,,,,,,,,,,,,,,,,,,,,,,,,,,,,,,,,,,,,,,,,,,,,,,,,,,,,,,,,,,,,,,,,,,,,,,,,,,,,,,,,,,,,,,,,,,,,,,,,,,,,,,,,,,,,,,,,,,,,,,,,,,,,,,
1717572952.443051,98.000000,0.000000,4379.871582,4356.666504,4340.769043,4366.666504,4396.153809,4362.179688,4378.461426,4358.974121,4426.153809,4474.615234,4528.077148,4557.820313,4342.692383,4451.538574,6092.000000,0.000000,1.000000,,,,0.000000,4.000000,4.000000,4.000000,4.000000,4.000000,4.000000,4.000000,4.000000,4.000000,4.000000,4.000000,4.000000,4.000000,4.000000,100.000000,,,,,,,,,,,,,,,,,,,,,,,,,,,,,,,,,,,,,,,,,,,,,,,,,,,,,,,,,,,,,,,,,,,,,,,,,,,,,,,,,,,,,,,,,,,,,,,,,,,,,,,,,,,,,,,,,,,,,,,,,,,,,,,,,,,,,,,,,,,,,,,
1717572952.451058,99.000000,1.000000,4380.987305,4359.974121,4342.653809,4370.422852,4397.525879,4364.384766,4381.615234,4362.436035,4428.230957,4475.063965,4529.846191,4560.166504,4346.384766,4453.563965,6146.399902,0.000000,1.000000,,,,0.000000,4.000000,4.000000,4.000000,4.000000,4.000000,4.000000,4.000000,4.000000,4.000000,4.000000,4.000000,4.000000,4.000000,4.000000,100.000000,,,,,,,,,,,,,,,,,,,,,,,,,,,,,,,,,,,,,,,,,,,,,,,,,,,,,,,,,,,,,,,,,,,,,,,,,,,,,,,,,,,,,,,,,,,,,,,,,,,,,,,,,,,,,,,,,,,,,,,,,,,,,,,,,,,,,,,,,,,,,,,
1717572952.458866,100.000000,1.000000,4382.102539,4363.282227,4344.538574,4374.179688,4398.897461,4366.589844,4384.769043,4365.897461,4430.307617,4475.512695,4531.615234,4562.512695,4350.077148,4455.589844,6200.799805,0.000000,1.000000,,,,0.000000,4.000000,4.000000,4.000000,4.000000,4.000000,4.000000,4.000000,4.000000,4.000000,4.000000,4.000000,4.000000,4.000000,4.000000,100.000000,,,,,,,,,,,,,,,,,25.000000,1.000000,0.444139,-0.567413,-0.327698,-0.611053,0.992919,-0.103650,0.136980,-28.655510,-34.728600,23.758244,1.000000,0.000000,0.000000,,,,,,,,,,,,,,,,,,,,,,,,,,,,,,,,,,,,,10.000000,0.000000,64.000000,0.082699,1.000000,0.000000,0.668744,0.215969,0.130723,0.041816,0.014592,0.596190,0.326922,0.129082,0.041070,0.015907,0.657664,0.199082,0.166046,0.060099,0.020871,0.732264,0.198980,0.278046,0.096894,0.038429,0.989413,0.339431,0.194199,0.062078,0.029898,0.696928,0.119038,0.077922,0.032503,0.017896,0.999053,0.108262,0.143932,0.061816,0.029761,0.447776,0.119520,0.140816,0.066735,0.028974,0.698019,0.214377,0.146600,0.070046,0.036560,0.626552,0.209300,0.099799,0.091911,0.044992,1.316597,0.442346,0.271050,0.109718,0.047071,1.162734,0.389727,0.242063,0.092188,0.038056,0.715245,0.430036,0.258374,0.103256,0.045599,1.245244,0.447973,0.228459,0.089708,0.032788
1717572952.466674,101.000000,1.000000,4383.217773,4366.589844,4346.422852,4377.936035,4400.269043,4368.794922,4387.922852,4369.358887,4432.384766,4475.961426,4533.384766,4564.858887,4353.769043,4457.615234,6255.200195,0.000000,1.000000,,,,0.000000,4.000000,4.000000,4.000000,4.000000,4.000000,4.000000,4.000000,4.000000,4.000000,4.000000,4.000000,4.000000,4.000000,4.000000,100.000000,,,,,,,,,,,,,,,,,,,,,,,,,,,,,,,,,,,,,,,,,,,,,,,,,,,,,,,,,,,,,,,,,,,,,,,,,,,,,,,,,,,,,,,,,,,,,,,,,,,,,,,,,,,,,,,,,,,,,,,,,,,,,,,,,,,,,,,,,,,,,,,
1717572952.474482,102.000000,1.000000,4384.333496,4369.897461,4348.307617,4381.692383,4401.641113,4371.000000,4391.077148,4372.820313,4434.461426,4476.410156,4535.153809,4567.205078,4357.461426,4459.641113,6309.600098,0.000000,1.000000,,,,0.000000,4.000000,4.000000,4.000000,4.000000,4.000000,4.000000,4.000000,4.000000,4.000000,4.000000,4.000000,4.000000,4.000000,4.000000,100.000000,,,,,,,,,,,,,,,,,,,,,,,,,,,,,,,,,,,,,,,,,,,,,,,,,,,,,,,,,,,,,,,,,,,,,,,,,,,,,,,,,,,,,,,,,,,,,,,,,,,,,,,,,,,,,,,,,,,,,,,,,,,,,,,,,,,,,,,,,,,,,,,
1717572952.482290,103.000000,1.000000,4385.448730,4373.205078,4350.192383,4385.448730,4403.012695,4373.205078,4394.230957,4376.282227,4436.538574,4476.858887,4536.922852,4569.551270,4361.153809,4461.666504,6364.000000,0.000000,1.000000,,,,0.000000,4.000000,4.000000,4.000000,4.000000,4.000000,4.000000,4.000000,4.000000,4.000000,4.000000,4.000000,4.000000,4.000000,4.000000,100.000000,,,,,,,,,,,,,,,,,,,,,,,,,,,,,,,,,,,,,,,,,,,,,,,,,,,,,,,,,,,,,,,,,,,,,,,,,,,,,,,,,,,,,,,,,,,,,,,,,,,,,,,,,,,,,,,,,,,,,,,,,,,,,,,,,,,,,,,,,,,,,,,
1717572952.490098,104.000000,1.000000,4386.563965,4376.512695,4352.077148,4389.205078,4404.384766,4375.410156,4397.384766,4379.743652,4438.615234,4477.307617,4538.692383,4571.897461,4364.846191,4463.692383,6418.399902,0.000000,1.000000,,,,0.000000,4.000000,4.000000,4.000000,4.000000,4.000000,4.000000,4.000000,4.000000,4.000000,4.000000,4.000000,4.000000,4.000000,4.000000,100.000000,,,,,,,,,,,,,,,,,26.000000,0.000000,0.446751,-0.566162,-0.328430,-0.609924,1.004883,-0.131242,0.152118,-28.727583,-34.729465,23.783621,,,,,,,,,,,,,,,,,,,,,,,,,,,,,,,,,,,,,,,,10.000000,0.000000,64.000000,0.082699,1.000000,0.000000,,,,,,,,,,,,,,,,,,,,,,,,,,,,,,,,,,,,,,,,,,,,,,,,,,,,,,,,,,,,,,,,,,,,,,
1717572952.497906,105.000000,1.000000,4387.679688,4379.820313,4353.961426,4392.961426,4405.756348,4377.615234,4400.538574,4383.205078,4440.692383,4477.756348,4540.461426,4574.243652,4368.538574,4465.717773,6472.799805,0.000000,1.000000,,,,0.000000,4.000000,4.000000,4.000000,4.000000,4.000000,4.000000,4.000000,4.000000,4.000000,4.000000,4.000000,4.000000,4.000000,4.000000,100.000000,,,,,,,,,,,,,,,,,,,,,,,,,,,,,,,,,,,,,,,,,,,,,,,,,,,,,,,,,,,,,,,,,,,,,,,,,,,,,,,,,,,,,,,,,,,,,,,,,,,,,,,,,,,,,,,,,,,,,,,,,,,,,,,,,,,,,,,,,,,,,,,
1717572952.505714,106.000000,1.000000,4388.794922,4383.128418,4355.846191,4396.717773,4407.128418,4379.820313,4403.692383,4386.666504,4442.769043,4478.205078,4542.230957,4576.589844,4372.230957,4467.743652,6527.200195,0.000000,1.000000,,,,0.000000,4.000000,4.000000,4.000000,4.000000,4.000000,4.000000,4.000000,4.000000,4.000000,4.000000,4.000000,4.000000,4.000000,4.000000,100.000000,,,,,,,,,,,,,,,,,,,,,,,,,,,,,,,,,,,,,,,,,,,,,,,,,,,,,,,,,,,,,,,,,,,,,,,,,,,,,,,,,,,,,,,,,,,,,,,,,,,,,,,,,,,,,,,,,,,,,,,,,,,,,,,,,,,,,,,,,,,,,,,
1717572952.513522,107.000000,1.000000,4389.910156,4386.436035,4357.730957,4400.474121,4408.500000,4382.025879,4406.846191,4390.128418,4444.846191,4478.653809,4544.000000,4578.936035,4375.922852,4469.769043,6581.600098,0.000000,1.000000,,,,0.000000,4.000000,4.000000,4.000000,4.000000,4.000000,4.000000,4.000000,4.000000,4.000000,4.000000,4.000000,4.000000,4.000000,4.000000,100.000000,,,,,,,,,,,,,,,,,,,,,,,,,,,,,,,,,,,,,,,,,,,,,,,,,,,,,,,,,,,,,,,,,,,,,,,,,,,,,,,,,,,,,,,,,,,,,,,,,,,,,,,,,,,,,,,,,,,,,,,,,,,,,,,,,,,,,,,,,,,,,,,
1717572952.521330,108.000000,0.000000,4391.025879,4389.743652,4359.615234,4404.230957,4409.871582,4384.230957,4410.000000,4393.589844,4446.922852,4479.102539,4545.769043,4581.282227,4379.615234,4471.794922,6636.000000,0.000000,1.000000,,,,0.000000,4.000000,4.000000,4.000000,4.000000,4.000000,4.000000,4.000000,4.000000,4.000000,4.000000,4.000000,4.000000,4.000000,4.000000,100.000000,,,,,,,,,,,,,,,,,27.000000,0.000000,0.446084,-0.566162,-0.328430,-0.610413,1.004883,-0.131242,0.152118,-28.771492,-34.706516,23.838593,,,,,,,,,,,,,,,,,,,,,,,,,,,,,,,,,,,,,,,,10.000000,0.000000,64.000000,0.082699,1.000000,0.000000,,,,,,,,,,,,,,,,,,,,,,,,,,,,,,,,,,,,,,,,,,,,,,,,,,,,,,,,,,,,,,,,,,,,,,
1717572952.529238,109.000000,1.000000,4388.141113,4377.467773,4356.282227,4388.750000,4411.217773,4380.705078,4405.384766,4390.384766,4447.467773,4471.313965,4544.070313,4577.916504,4380.608887,4470.352539,6636.000000,0.000000,1.000000,,,,0.000000,4.000000,4.000000,4.000000,4.000000,4.000000,4.000000,4.000000,4.000000,4.000000,4.000000,4.000000,4.000000,4.000000,4.000000,100.000000,,,,,,,,,,,,,,,,,,,,,,,,,,,,,,,,,,,,,,,,,,,,,,,,,,,,,,,,,,,,,,,,,,,,,,,,,,,,,,,,,,,,,,,,,,,,,,,,,,,,,,,,,,,,,,,,,,,,,,,,,,,,,,,,,,,,,,,,,,,,,,,
1717572952.537046,110.000000,1.000000,4385.256348,4365.192383,4352.948730,4373.269043,4412.563965,4377.179688,4400.769043,4387.179688,4448.012695,4463.525879,4542.371582,4574.551270,4381.602539,4468.910156,6636.000000,0.000000,1.000000,,,,0.000000,4.000000,4.000000,4.000000,4.000000,4.000000,4.000000,4.000000,4.000000,4.000000,4.000000,4.000000,4.000000,4.000000,4.000000,100.000000,,,,,,,,,,,,,,,,,,,,,,,,,,,,,,,,,,,,,,,,,,,,,,,,,,,,,,,,,,,,,,,,,,,,,,,,,,,,,,,,,,,,,,,,,,,,,,,,,,,,,,,,,,,,,,,,,,,,,,,,,,,,,,,,,,,,,,,,,,,,,,,
1717572952.544854,111.000000,1.000000,4382.371582,4352.916504,4349.615234,4357.788574,4413.910156,4373.653809,4396.153809,4383.974121,4448.557617,4455.737305,4540.672852,4571.186035,4382.596191,4467.467773,6636.000000,0.000000,1.000000,,,,0.000000,4.000000,4.000000,4.000000,4.000000,4.000000,4.000000,4.000000,4.000000,4.000000,4.000000,4.000000,4.000000,4.000000,4.000000,100.000000,,,,,,,,,,,,,,,,,,,,,,,,,,,,,,,,,,,,,,,,,,,,,,,,,,,,,,,,,,,,,,,,,,,,,,,,,,,,,,,,,,,,,,,,,,,,,,,,,,,,,,,,,,,,,,,,,,,,,,,,,,,,,,,,,,,,,,,,,,,,,,,
1717572952.552662,112.000000,0.000000,4379.487305,4340.641113,4346.282227,4342.307617,4415.256348,4370.128418,4391.538574,4380.769043,4449.102539,4447.948730,4538.974121,4567.820313,4383.589844,4466.025879,6636.000000,0.000000,1.000000,,,,0.000000,4.000000,4.000000,4.000000,4.000000,4.000000,4.000000,4.000000,4.000000,4.000000,4.000000,4.000000,4.000000,4.000000,4.000000,100.000000,,,,,,,,,,,,,,,,,28.000000,0.000000,0.448280,-0.566040,-0.328369,-0.608948,0.952631,-0.127335,0.166768,-29.337875,-34.652164,23.910767,,,,,,,,,,,,,,,,,,,,,,,,,,,,,,,,,,,,,,,,10.000000,0.000000,64.000000,0.082699,1.000000,0.000000,,,,,,,,,,,,,,,,,,,,,,,,,,,,,,,,,,,,,,,,,,,,,,,,,,,,,,,,,,,,,,,,,,,,,,
1717572952.560570,113.000000,0.000000,4407.051270,4356.025879,4378.974121,4361.794922,4444.743652,4418.974121,4447.051270,4427.692383,4514.487305,4487.051270,4602.307617,4622.948730,4440.769043,4515.641113,6686.000000,0.000000,1.000000,,,,0.000000,4.000000,4.000000,4.000000,4.000000,4.000000,4.000000,4.000000,4.000000,4.000000,4.000000,4.000000,4.000000,4.000000,4.000000,100.000000,,,,,,,,,,,,,,,,,,,,,,,,,,,,,,,,,,,,,,,,,,,,,,,,,,,,,,,,,,,,,,,,,,,,,,,,,,,,,,,,,,,,,,,,,,,,,,,,,,,,,,,,,,,,,,,,,,,,,,,,,,,,,,,,,,,,,,,,,,,,,,,
1717572952.568877,114.000000,1.000000,4407.781738,4359.001465,4379.875488,4361.515137,4444.976563,4419.564941,4448.628418,4428.535156,4516.433594,4487.190918,4601.868652,4622.976074,4441.223633,4516.099609,6483.394043,0.000000,1.000000,,,,0.000000,4.000000,4.000000,4.000000,4.000000,4.000000,4.000000,4.000000,4.000000,4.000000,4.000000,4.000000,4.000000,4.000000,4.000000,100.000000,,,,,,,,,,,,,,,,,,,,,,,,,,,,,,,,,,,,,,,,,,,,,,,,,,,,,,,,,,,,,,,,,,,,,,,,,,,,,,,,,,,,,,,,,,,,,,,,,,,,,,,,,,,,,,,,,,,,,,,,,,,,,,,,,,,,,,,,,,,,,,,
1717572952.576685,115.000000,1.000000,4408.512207,4361.977539,4380.776855,4361.235352,4445.209961,4420.155273,4450.206055,4429.378418,4518.379883,4487.331055,4601.429688,4623.002930,4441.678223,4516.558105,6280.788086,0.000000,1.000000,,,,0.000000,4.000000,4.000000,4.000000,4.000000,4.000000,4.000000,4.000000,4.000000,4.000000,4.000000,4.000000,4.000000,4.000000,4.000000,100.000000,,,,,,,,,,,,,,,,,,,,,,,,,,,,,,,,,,,,,,,,,,,,,,,,,,,,,,,,,,,,,,,,,,,,,,,,,,,,,,,,,,,,,,,,,,,,,,,,,,,,,,,,,,,,,,,,,,,,,,,,,,,,,,,,,,,,,,,,,,,,,,,
1717572952.584493,116.000000,1.000000,4409.242188,4364.953613,4381.678223,4360.955566,4445.442871,4420.746094,4451.783203,4430.221680,4520.326172,4487.470703,4600.990723,4623.030273,4442.132813,4517.016113,6078.181641,0.000000,1.000000,,,,0.000000,4.000000,4.000000,4.000000,4.000000,4.000000,4.000000,4.000000,4.000000,4.000000,4.000000,4.000000,4.000000,4.000000,4.000000,100.000000,-1.000000,25.000000,4.000000,1.000000,1.000000,3.000000,1.000000,3.000000,3.000000,3.000000,3.000000,1.000000,3.000000,3.000000,3.000000,3.000000,29.000000,1.000000,0.450440,-0.566574,-0.325958,-0.608124,0.959834,-0.134294,0.161641,-29.347651,-34.746979,23.952438,1.000000,0.000000,0.000000,,,,,,,,,,,,,,,,,,,,,,,,,,,,,,,,,,,,,0.000000,0.000000,64.000000,0.119983,1.000000,0.000000,1.396399,0.432392,0.202895,0.064761,0.021472,1.157623,0.355007,0.147519,0.059454,0.015776,1.464135,0.458244,0.289342,0.103775,0.033002,1.439949,0.400021,0.393775,0.145885,0.059571,2.643341,0.832676,0.454498,0.176941,0.076327,0.742547,0.111091,0.087152,0.034396,0.016691,1.268245,0.169668,0.206551,0.071019,0.027978,0.554632,0.144802,0.176591,0.080580,0.034968,0.900025,0.280172,0.225786,0.093041,0.037728,0.813794,0.250905,0.156681,0.150493,0.081817,2.210732,0.633461,0.379464,0.143606,0.059270,2.312553,0.677733,0.339725,0.122812,0.046757,0.950269,0.596684,0.363494,0.170333,0.090632,3.546825,1.027043,0.435290,0.155913,0.054296
1717572952.592301,117.000000,1.000000,4409.972656,4367.929199,4382.579590,4360.675781,4445.675781,4421.336426,4453.360352,4431.064453,4522.272949,4487.610840,4600.551758,4623.057617,4442.587402,4517.474609,5875.575684,0.000000,1.000000,,,,0.000000,4.000000,4.000000,4.000000,4.000000,4.000000,4.000000,4.000000,4.000000,4.000000,4.000000,4.000000,4.000000,4.000000,4.000000,100.000000,,,,,,,,,,,,,,,,,,,,,,,,,,,,,,,,,,,,,,,,,,,,,,,,,,,,,,,,,,,,,,,,,,,,,,,,,,,,,,,,,,,,,,,,,,,,,,,,,,,,,,,,,,,,,,,,,,,,,,,,,,,,,,,,,,,,,,,,,,,,,,,
1717572952.600109,118.000000,1.000000,4410.703125,4370.905273,4383.480957,4360.396484,4445.909180,4421.926758,4454.937988,4431.907715,4524.219238,4487.750488,4600.112793,4623.084473,4443.041992,4517.933105,5672.969727,0.000000,1.000000,,,,0.000000,4.000000,4.000000,4.000000,4.000000,4.000000,4.000000,4.000000,4.000000,4.000000,4.000000,4.000000,4.000000,4.000000,4.000000,100.000000,,,,,,,,,,,,,,,,,,,,,,,,,,,,,,,,,,,,,,,,,,,,,,,,,,,,,,,,,,,,,,,,,,,,,,,,,,,,,,,,,,,,,,,,,,,,,,,,,,,,,,,,,,,,,,,,,,,,,,,,,,,,,,,,,,,,,,,,,,,,,,,
1717572952.607917,119.000000,1.000000,4411.433594,4373.881348,4384.382324,4360.116699,4446.142090,4422.517578,4456.515137,4432.750488,4526.165527,4487.890625,4599.673828,4623.111816,4443.496582,4518.391602,5470.363770,0.000000,1.000000,,,,0.000000,4.000000,4.000000,4.000000,4.000000,4.000000,4.000000,4.000000,4.000000,4.000000,4.000000,4.000000,4.000000,4.000000,4.000000,100.000000,,,,,,,,,,,,,,,,,,,,,,,,,,,,,,,,,,,,,,,,,,,,,,,,,,,,,,,,,,,,,,,,,,,,,,,,,,,,,,,,,,,,,,,,,,,,,,,,,,,,,,,,,,,,,,,,,,,,,,,,,,,,,,,,,,,,,,,,,,,,,,,
1717572952.615725,120.000000,1.000000,4412.164063,4376.856934,4385.283691,4359.836914,4446.375488,4423.107910,4458.092285,4433.593750,4528.111816,4488.030273,4599.234863,4623.139160,4443.951172,4518.850098,5267.757813,0.000000,1.000000,,,,0.000000,4.000000,4.000000,4.000000,4.000000,4.000000,4.000000,4.000000,4.000000,4.000000,4.000000,4.000000,4.000000,4.000000,4.000000,100.000000,,,,,,,,,,,,,,,,,30.000000,1.000000,0.452600,-0.567108,-0.323547,-0.607300,0.967037,-0.141253,0.156513,-29.357428,-34.841793,23.994108,,,,,,,,,,,,,,,,,,,,,,,,,,,,,,,,,,,,,,,,0.000000,0.000000,64.000000,0.119983,1.000000,0.000000,,,,,,,,,,,,,,,,,,,,,,,,,,,,,,,,,,,,,,,,,,,,,,,,,,,,,,,,,,,,,,,,,,,,,,
1717572952.623533,121.000000,1.000000,4412.894531,4379.833008,4386.185059,4359.557129,4446.608398,4423.698730,4459.669922,4434.436523,4530.058105,4488.169922,4598.795410,4623.166504,4444.405762,4519.308594,5065.151367,0.000000,1.000000,,,,0.000000,4.000000,4.000000,4.000000,4.000000,4.000000,4.000000,4.000000,4.000000,4.000000,4.000000,4.000000,4.000000,4.000000,4.000000,100.000000,,,,,,,,,,,,,,,,,,,,,,,,,,,,,,,,,,,,,,,,,,,,,,,,,,,,,,,,,,,,,,,,,,,,,,,,,,,,,,,,,,,,,,,,,,,,,,,,,,,,,,,,,,,,,,,,,,,,,,,,,,,,,,,,,,,,,,,,,,,,,,,
1717572952.631341,122.000000,1.000000,4413.624512,4382.809082,4387.086426,4359.277344,4446.841309,4424.289063,4461.247070,4435.279785,4532.004883,4488.310059,4598.356445,4623.193359,4444.860352,4519.767090,4862.545410,0.000000,1.000000,,,,0.000000,4.000000,4.000000,4.000000,4.000000,4.000000,4.000000,4.000000,4.000000,4.000000,4.000000,4.000000,4.000000,4.000000,4.000000,100.000000,,,,,,,,,,,,,,,,,,,,,,,,,,,,,,,,,,,,,,,,,,,,,,,,,,,,,,,,,,,,,,,,,,,,,,,,,,,,,,,,,,,,,,,,,,,,,,,,,,,,,,,,,,,,,,,,,,,,,,,,,,,,,,,,,,,,,,,,,,,,,,,
1717572952.639149,123.000000,1.000000,4414.354980,4385.784668,4387.987793,4358.997559,4447.074707,4424.879395,4462.824219,4436.122559,4533.951172,4488.449707,4597.917480,4623.220703,4445.314453,4520.225098,4659.939453,0.000000,1.000000,,,,0.000000,4.000000,4.000000,4.000000,4.000000,4.000000,4.000000,4.000000,4.000000,4.000000,4.000000,4.000000,4.000000,4.000000,4.000000,100.000000,,,,,,,,,,,,,,,,,,,,,,,,,,,,,,,,,,,,,,,,,,,,,,,,,,,,,,,,,,,,,,,,,,,,,,,,,,,,,,,,,,,,,,,,,,,,,,,,,,,,,,,,,,,,,,,,,,,,,,,,,,,,,,,,,,,,,,,,,,,,,,,
1717572952.646957,124.000000,1.000000,4415.085449,4388.760742,4388.888672,4358.717773,4447.307617,4425.470215,4464.401855,4436.965820,4535.897461,4488.589844,4597.478516,4623.248047,4445.769043,4520.683594,4457.333496,0.000000,1.000000,,,,0.000000,4.000000,4.000000,4.000000,4.000000,4.000000,4.000000,4.000000,4.000000,4.000000,4.000000,4.000000,4.000000,4.000000,4.000000,100.000000,,,,,,,,,,,,,,,,,31.000000,1.000000,0.454760,-0.567642,-0.321136,-0.606476,0.974240,-0.148211,0.151386,-29.367203,-34.936611,24.035778,,,,,,,,,,,,,,,,,,,,,,,,,,,,,,,,,,,,,,,,0.000000,0.000000,64.000000,0.119983,1.000000,0.000000,,,,,,,,,,,,,,,,,,,,,,,,,,,,,,,,,,,,,,,,,,,,,,,,,,,,,,,,,,,,,,,,,,,,,,
1717572952.654765,125.000000,1.000000,4415.815918,4391.736816,4389.790039,4358.437988,4447.541016,4426.060547,4465.979004,4437.809082,4537.843750,4488.729492,4597.039551,4623.274902,4446.223633,4521.142090,4254.727051,0.000000,1.000000,,,,0.000000,4.000000,4.000000,4.000000,4.000000,4.000000,4.000000,4.000000,4.000000,4.000000,4.000000,4.000000,4.000000,4.000000,4.000000,100.000000,,,,,,,,,,,,,,,,,,,,,,,,,,,,,,,,,,,,,,,,,,,,,,,,,,,,,,,,,,,,,,,,,,,,,,,,,,,,,,,,,,,,,,,,,,,,,,,,,,,,,,,,,,,,,,,,,,,,,,,,,,,,,,,,,,,,,,,,,,,,,,,
1717572952.662573,126.000000,1.000000,4416.546387,4394.712402,4390.691406,4358.158691,4447.773926,4426.651367,4467.556152,4438.651855,4539.790039,4488.869629,4596.600586,4623.302246,4446.678223,4521.600586,4052.121094,0.000000,1.000000,,,,0.000000,4.000000,4.000000,4.000000,4.000000,4.000000,4.000000,4.000000,4.000000,4.000000,4.000000,4.000000,4.000000,4.000000,4.000000,100.000000,,,,,,,,,,,,,,,,,,,,,,,,,,,,,,,,,,,,,,,,,,,,,,,,,,,,,,,,,,,,,,,,,,,,,,,,,,,,,,,,,,,,,,,,,,,,,,,,,,,,,,,,,,,,,,,,,,,,,,,,,,,,,,,,,,,,,,,,,,,,,,,
1717572952.670381,127.000000,1.000000,4417.276855,4397.688477,4391.592773,4357.878906,4448.006836,4427.241699,4469.133789,4439.495117,4541.736816,4489.009277,4596.161621,4623.329590,4447.132813,4522.059082,3849.515137,0.000000,1.000000,,,,0.000000,4.000000,4.000000,4.000000,4.000000,4.000000,4.000000,4.000000,4.000000,4.000000,4.000000,4.000000,4.000000,4.000000,4.000000,100.000000,,,,,,,,,,,,,,,,,,,,,,,,,,,,,,,,,,,,,,,,,,,,,,,,,,,,,,,,,,,,,,,,,,,,,,,,,,,,,,,,,,,,,,,,,,,,,,,,,,,,,,,,,,,,,,,,,,,,,,,,,,,,,,,,,,,,,,,,,,,,,,,
1717572952.678189,0.000000,1.000000,4418.006836,4400.664551,4392.494141,4357.599121,4448.240234,4427.832031,4470.710938,4440.337891,4543.683105,4489.149414,4595.722656,4623.356445,4447.587402,4522.517578,3597.000000,0.000000,1.000000,,,,0.000000,4.000000,4.000000,4.000000,4.000000,4.000000,4.000000,4.000000,4.000000,4.000000,4.000000,4.000000,4.000000,4.000000,4.000000,100.000000,,,,,,,,,,,,,,,,,0.000000,0.000000,0.456920,-0.568176,-0.318726,-0.605652,0.981443,-0.155170,0.146258,-29.376978,-35.031425,24.077450,,,,,,,,,,,,,,,,,,,,,,,,,,,,,,,,,,,,,,,,0.000000,0.000000,64.000000,0.119983,1.000000,0.000000,,,,,,,,,,,,,,,,,,,,,,,,,,,,,,,,,,,,,,,,,,,,,,,,,,,,,,,,,,,,,,,,,,,,,,
1717572952.685997,1.000000,1.000000,4418.737305,4403.640137,4393.395508,4357.319336,4448.473145,4428.422852,4472.288086,4441.181152,4545.629395,4489.289063,4595.283691,4623.383789,4448.041992,4522.976074,5457.000000,0.000000,1.000000,,,,0.000000,4.000000,4.000000,4.000000,4.000000,4.000000,4.000000,4.000000,4.000000,4.000000,4.000000,4.000000,4.000000,4.000000,4.000000,100.000000,,,,,,,,,,,,,,,,,,,,,,,,,,,,,,,,,,,,,,,,,,,,,,,,,,,,,,,,,,,,,,,,,,,,,,,,,,,,,,,,,,,,,,,,,,,,,,,,,,,,,,,,,,,,,,,,,,,,,,,,,,,,,,,,,,,,,,,,,,,,,,,
1717572952.693805,2.000000,1.000000,4419.467773,4406.616211,4394.296875,4357.039551,4448.706055,4429.013184,4473.865723,4442.023926,4547.575684,4489.428711,4594.844727,4623.411133,4448.496582,4523.434570,3598.000000,0.000000,1.000000,,,,0.000000,4.000000,4.000000,4.000000,4.000000,4.000000,4.000000,4.000000,4.000000,4.000000,4.000000,4.000000,4.000000,4.000000,4.000000,100.000000,,,,,,,,,,,,,,,,,,,,,,,,,,,,,,,,,,,,,,,,,,,,,,,,,,,,,,,,,,,,,,,,,,,,,,,,,,,,,,,,,,,,,,,,,,,,,,,,,,,,,,,,,,,,,,,,,,,,,,,,,,,,,,,,,,,,,,,,,,,,,,,
1717572952.701613,3.000000,1.000000,4420.198242,4409.592285,4395.198242,4356.759766,4448.939453,4429.603516,4475.442871,4442.867188,4549.521973,4489.568848,4594.405762,4623.437988,4448.951172,4523.892578,3496.000000,0.000000,1.000000,,,,0.000000,4.000000,4.000000,4.000000,4.000000,4.000000,4.000000,4.000000,4.000000,4.000000,4.000000,4.000000,4.000000,4.000000,4.000000,100.000000,,,,,,,,,,,,,,,,,,,,,,,,,,,,,,,,,,,,,,,,,,,,,,,,,,,,,,,,,,,,,,,,,,,,,,,,,,,,,,,,,,,,,,,,,,,,,,,,,,,,,,,,,,,,,,,,,,,,,,,,,,,,,,,,,,,,,,,,,,,,,,,
1717572952.709421,4.000000,1.000000,4420.928711,4412.567871,4396.099609,4356.479980,4449.172363,4430.194336,4477.020020,4443.709961,4551.468750,4489.708496,4593.966797,4623.465332,4449.405762,4524.351074,5187.000000,0.000000,1.000000,,,,0.000000,4.000000,4.000000,4.000000,4.000000,4.000000,4.000000,4.000000,4.000000,4.000000,4.000000,4.000000,4.000000,4.000000,4.000000,100.000000,,,,,,,,,,,,,,,,,1.000000,0.000000,0.459566,-0.568848,-0.317078,-0.603882,0.990233,-0.143450,0.147723,-29.239281,-34.978283,24.103039,1.000000,0.000000,0.000000,,,,,,,,,,,,,,,,,,,,,,,,,,,,,,,,,,,,,0.000000,0.000000,64.000000,0.049046,1.000000,0.000000,3.208824,0.860599,0.348923,0.109849,0.033498,3.310363,0.623443,0.234946,0.121294,0.027247,3.354514,0.975697,0.519681,0.185461,0.054737,3.175638,0.889662,0.769639,0.286957,0.111174,6.199214,1.865406,0.956183,0.404120,0.166112,0.913589,0.150086,0.122138,0.041078,0.018120,1.875296,0.333735,0.320492,0.092962,0.030359,0.713443,0.188429,0.225108,0.100155,0.042589,1.360572,0.470993,0.374896,0.141175,0.044103,1.025700,0.321059,0.262652,0.250194,0.151661,4.134159,1.010714,0.566384,0.196697,0.073755,5.203866,1.265677,0.542171,0.182677,0.060915,1.409548,0.830639,0.537037,0.287274,0.169700,8.697701,2.131344,0.828920,0.281587,0.091269
1717572952.717229,5.000000,1.000000,4421.658691,4415.543945,4397.000977,4356.200684,4449.405762,4430.784668,4478.597656,4444.553223,4553.415039,4489.848633,4593.527344,4623.492676,4449.860352,4524.809570,5417.000000,0.000000,1.000000,,,,0.000000,4.000000,4.000000,4.000000,4.000000,4.000000,4.000000,4.000000,4.000000,4.000000,4.000000,4.000000,4.000000,4.000000,4.000000,100.000000,,,,,,,,,,,,,,,,,,,,,,,,,,,,,,,,,,,,,,,,,,,,,,,,,,,,,,,,,,,,,,,,,,,,,,,,,,,,,,,,,,,,,,,,,,,,,,,,,,,,,,,,,,,,,,,,,,,,,,,,,,,,,,,,,,,,,,,,,,,,,,,
1717572952.725037,6.000000,1.000000,4422.389160,4418.520020,4397.901855,4355.920898,4449.638672,4431.375488,4480.174805,4445.396484,4555.361328,4489.988281,4593.088379,4623.520020,4450.314453,4525.268066,5180.000000,0.000000,1.000000,,,,0.000000,4.000000,4.000000,4.000000,4.000000,4.000000,4.000000,4.000000,4.000000,4.000000,4.000000,4.000000,4.000000,4.000000,4.000000,100.000000,,,,,,,,,,,,,,,,,,,,,,,,,,,,,,,,,,,,,,,,,,,,,,,,,,,,,,,,,,,,,,,,,,,,,,,,,,,,,,,,,,,,,,,,,,,,,,,,,,,,,,,,,,,,,,,,,,,,,,,,,,,,,,,,,,,,,,,,,,,,,,,
1717572952.732845,7.000000,1.000000,4423.119629,4421.495605,4398.803223,4355.641113,4449.871582,4431.965820,4481.751953,4446.239258,4557.307617,4490.128418,4592.649414,4623.546875,4450.769043,4525.726563,4363.000000,0.000000,1.000000,,,,0.000000,4.000000,4.000000,4.000000,4.000000,4.000000,4.000000,4.000000,4.000000,4.000000,4.000000,4.000000,4.000000,4.000000,4.000000,100.000000,,,,,,,,,,,,,,,,,,,,,,,,,,,,,,,,,,,,,,,,,,,,,,,,,,,,,,,,,,,,,,,,,,,,,,,,,,,,,,,,,,,,,,,,,,,,,,,,,,,,,,,,,,,,,,,,,,,,,,,,,,,,,,,,,,,,,,,,,,,,,,,
1717572952.740653,8.000000,1.000000,4423.850098,4424.471680,4399.704590,4355.361328,4450.104980,4432.556152,4483.329590,4447.082520,4559.253906,4490.268066,4592.210449,4623.574219,4451.223633,4526.185059,5110.000000,0.000000,1.000000,,,,0.000000,4.000000,4.000000,4.000000,4.000000,4.000000,4.000000,4.000000,4.000000,4.000000,4.000000,4.000000,4.000000,4.000000,4.000000,100.000000,,,,,,,,,,,,,,,,,2.000000,1.000000,0.461414,-0.569031,-0.317017,-0.602325,0.984617,-0.173727,0.150409,-29.129883,-35.007847,24.216583,,,,,,,,,,,,,,,,,,,,,,,,,,,,,,,,,,,,,,,,0.000000,0.000000,64.000000,0.049046,1.000000,0.000000,,,,,,,,,,,,,,,,,,,,,,,,,,,,,,,,,,,,,,,,,,,,,,,,,,,,,,,,,,,,,,,,,,,,,,
1717572952.748461,9.000000,1.000000,4424.580566,4427.447754,4400.605957,4355.081543,4450.337891,4433.146973,4484.906738,4447.925293,4561.200684,4490.407715,4591.771484,4623.601563,4451.678223,4526.643555,4552.000000,0.000000,1.000000,,,,0.000000,4.000000,4.000000,4.000000,4.000000,4.000000,4.000000,4.000000,4.000000,4.000000,4.000000,4.000000,4.000000,4.000000,4.000000,100.000000,,,,,,,,,,,,,,,,,,,,,,,,,,,,,,,,,,,,,,,,,,,,,,,,,,,,,,,,,,,,,,,,,,,,,,,,,,,,,,,,,,,,,,,,,,,,,,,,,,,,,,,,,,,,,,,,,,,,,,,,,,,,,,,,,,,,,,,,,,,,,,,
1717572952.756269,10.000000,1.000000,4425.311035,4430.423340,4401.507324,4354.801758,4450.571289,4433.737305,4486.483887,4448.768555,4563.146973,4490.547852,4591.332520,4623.628418,4452.132813,4527.101563,6020.000000,0.000000,1.000000,,,,0.000000,4.000000,4.000000,4.000000,4.000000,4.000000,4.000000,4.000000,4.000000,4.000000,4.000000,4.000000,4.000000,4.000000,4.000000,100.000000,,,,,,,,,,,,,,,,,,,,,,,,,,,,,,,,,,,,,,,,,,,,,,,,,,,,,,,,,,,,,,,,,,,,,,,,,,,,,,,,,,,,,,,,,,,,,,,,,,,,,,,,,,,,,,,,,,,,,,,,,,,,,,,,,,,,,,,,,,,,,,,
1717572952.764077,11.000000,1.000000,4426.041016,4433.399414,4402.408691,4354.521973,4450.804199,4434.328125,4488.061523,4449.611328,4565.093262,4490.687500,4590.893555,4623.655762,4452.587402,4527.560059,5796.000000,0.000000,1.000000,,,,0.000000,4.000000,4.000000,4.000000,4.000000,4.000000,4.000000,4.000000,4.000000,4.000000,4.000000,4.000000,4.000000,4.000000,4.000000,100.000000,,,,,,,,,,,,,,,,,,,,,,,,,,,,,,,,,,,,,,,,,,,,,,,,,,,,,,,,,,,,,,,,,,,,,,,,,,,,,,,,,,,,,,,,,,,,,,,,,,,,,,,,,,,,,,,,,,,,,,,,,,,,,,,,,,,,,,,,,,,,,,,
1717572952.771884,12.000000,1.000000,4426.771484,4436.375488,4403.310059,4354.242188,4451.037109,4434.918457,4489.638672,4450.454590,4567.039551,4490.827637,4590.454590,4623.683105,4453.041992,4528.018555,6626.000000,0.000000,1.000000,,,,0.000000,4.000000,4.000000,4.000000,4.000000,4.000000,4.000000,4.000000,4.000000,4.000000,4.000000,4.000000,4.000000,4.000000,4.000000,100.000000,,,,,,,,,,,,,,,,,3.000000,0.000000,0.463262,-0.569214,-0.316956,-0.600769,0.979001,-0.204004,0.153095,-29.020483,-35.037411,24.330128,,,,,,,,,,,,,,,,,,,,,,,,,,,,,,,,,,,,,,,,0.000000,0.000000,64.000000,0.049046,1.000000,0.000000,,,,,,,,,,,,,,,,,,,,,,,,,,,,,,,,,,,,,,,,,,,,,,,,,,,,,,,,,,,,,,,,,,,,,,
1717572952.779692,13.000000,1.000000,4427.501953,4439.351074,4404.211426,4353.962891,4451.270508,4435.508789,4491.215820,4451.297363,4568.985840,4490.967285,4590.015625,4623.709961,4453.496582,4528.477051,6631.000000,0.000000,1.000000,,,,0.000000,4.000000,4.000000,4.000000,4.000000,4.000000,4.000000,4.000000,4.000000,4.000000,4.000000,4.000000,4.000000,4.000000,4.000000,100.000000,,,,,,,,,,,,,,,,,,,,,,,,,,,,,,,,,,,,,,,,,,,,,,,,,,,,,,,,,,,,,,,,,,,,,,,,,,,,,,,,,,,,,,,,,,,,,,,,,,,,,,,,,,,,,,,,,,,,,,,,,,,,,,,,,,,,,,,,,,,,,,,
1717572952.787500,14.000000,1.000000,4428.232422,4442.327148,4405.112793,4353.683105,4451.503418,4436.099609,4492.793457,4452.140625,4570.932617,4491.107422,4589.576660,4623.737305,4453.951172,4528.935547,6017.000000,0.000000,1.000000,,,,0.000000,4.000000,4.000000,4.000000,4.000000,4.000000,4.000000,4.000000,4.000000,4.000000,4.000000,4.000000,4.000000,4.000000,4.000000,100.000000,,,,,,,,,,,,,,,,,,,,,,,,,,,,,,,,,,,,,,,,,,,,,,,,,,,,,,,,,,,,,,,,,,,,,,,,,,,,,,,,,,,,,,,,,,,,,,,,,,,,,,,,,,,,,,,,,,,,,,,,,,,,,,,,,,,,,,,,,,,,,,,
1717572952.795308,15.000000,1.000000,4428.962891,4445.303223,4406.014160,4353.403320,4451.736816,4436.689941,4494.370605,4452.983887,4572.878906,4491.247070,4589.137695,4623.764648,4454.405762,4529.394043,5796.000000,0.000000,1.000000,,,,0.000000,4.000000,4.000000,4.000000,4.000000,4.000000,4.000000,4.000000,4.000000,4.000000,4.000000,4.000000,4.000000,4.000000,4.000000,100.000000,,,,,,,,,,,,,,,,,,,,,,,,,,,,,,,,,,,,,,,,,,,,,,,,,,,,,,,,,,,,,,,,,,,,,,,,,,,,,,,,,,,,,,,,,,,,,,,,,,,,,,,,,,,,,,,,,,,,,,,,,,,,,,,,,,,,,,,,,,,,,,,
1717572952.803116,16.000000,1.000000,4429.692871,4448.278809,4406.915527,4353.123535,4451.969727,4437.280273,4495.947754,4453.826660,4574.825195,4491.386719,4588.698730,4623.791992,4454.860352,4529.852539,405.212128,0.000000,1.000000,,,,0.000000,4.000000,4.000000,4.000000,4.000000,4.000000,4.000000,4.000000,4.000000,4.000000,4.000000,4.000000,4.000000,4.000000,4.000000,100.000000,,,,,,,,,,,,,,,,,4.000000,0.000000,0.466808,-0.570313,-0.316467,-0.597229,0.968746,-0.200098,0.155537,-29.018435,-35.000336,24.480448,,,,,,,,,,,,,,,,,,,,,,,,,,,,,,,,,,,,,,,,0.000000,0.000000,64.000000,0.049046,1.000000,0.000000,,,,,,,,,,,,,,,,,,,,,,,,,,,,,,,,,,,,,,,,,,,,,,,,,,,,,,,,,,,,,,,,,,,,,,
1717572952.810924,17.000000,1.000000,4430.423340,4451.254883,4407.816406,4352.843750,4452.202637,4437.871094,4497.525391,4454.669922,4576.771484,4491.526855,4588.259277,4623.818848,4455.314453,4530.311035,202.606064,0.000000,1.000000,,,,0.000000,4.000000,4.000000,4.000000,4.000000,4.000000,4.000000,4.000000,4.000000,4.000000,4.000000,4.000000,4.000000,4.000000,4.000000,100.000000,,,,,,,,,,,,,,,,,,,,,,,,,,,,,,,,,,,,,,,,,,,,,,,,,,,,,,,,,,,,,,,,,,,,,,,,,,,,,,,,,,,,,,,,,,,,,,,,,,,,,,,,,,,,,,,,,,,,,,,,,,,,,,,,,,,,,,,,,,,,,,,
1717572952.818732,18.000000,0.000000,4431.153809,4454.230957,4408.717773,4352.563965,4452.436035,4438.461426,4499.102539,4455.512695,4578.717773,4491.666504,4587.820313,4623.846191,4455.769043,4530.769043,0.000000,0.000000,1.000000,,,,0.000000,4.000000,4.000000,4.000000,4.000000,4.000000,4.000000,4.000000,4.000000,4.000000,4.000000,4.000000,4.000000,4.000000,4.000000,100.000000,,,,,,,,,,,,,,,,,,,,,,,,,,,,,,,,,,,,,,,,,,,,,,,,,,,,,,,,,,,,,,,,,,,,,,,,,,,,,,,,,,,,,,,,,,,,,,,,,,,,,,,,,,,,,,,,,,,,,,,,,,,,,,,,,,,,,,,,,,,,,,,
1717572952.826840,19.000000,1.000000,4429.957031,4449.668945,4407.147461,4348.226563,4448.910156,4435.758789,4497.692383,4453.910156,4575.310059,4485.299316,4584.230957,4621.356934,4449.829102,4528.023438,0.000000,0.000000,1.000000,,,,0.000000,4.000000,4.000000,4.000000,4.000000,4.000000,4.000000,4.000000,4.000000,4.000000,4.000000,4.000000,4.000000,4.000000,4.000000,100.000000,,,,,,,,,,,,,,,,,,,,,,,,,,,,,,,,,,,,,,,,,,,,,,,,,,,,,,,,,,,,,,,,,,,,,,,,,,,,,,,,,,,,,,,,,,,,,,,,,,,,,,,,,,,,,,,,,,,,,,,,,,,,,,,,,,,,,,,,,,,,,,,
1717572952.834648,20.000000,1.000000,4428.760742,4445.106934,4405.577148,4343.888672,4445.384766,4433.055664,4496.282227,4452.307617,4571.901855,4478.931641,4580.641113,4618.867676,4443.888672,4525.277832,0.000000,0.000000,1.000000,,,,0.000000,4.000000,4.000000,4.000000,4.000000,4.000000,4.000000,4.000000,4.000000,4.000000,4.000000,4.000000,4.000000,4.000000,4.000000,100.000000,,,,,,,,,,,,,,,,,5.000000,0.000000,0.466808,-0.570313,-0.316467,-0.597229,0.968746,-0.200098,0.155537,-28.924932,-34.891937,24.677496,1.000000,0.000000,0.000000,,,,,,,,,,,,,,,,,,,,,,,,,,,,,,,,,,,,,0.000000,0.000000,1.000000,0.000000,512.000000,0.116718,6.237465,1.508668,0.571993,0.173681,0.050358,7.612400,1.213006,0.410760,0.234108,0.053963,6.403172,1.744520,0.850834,0.298021,0.084845,6.191221,1.748511,1.545302,0.544873,0.194224,11.639602,3.340397,1.647779,0.718178,0.290787,1.202355,0.254820,0.203673,0.054406,0.022777,2.792346,0.617065,0.508257,0.128573,0.037998,0.923696,0.255888,0.297847,0.126273,0.051441,2.153162,0.799006,0.605917,0.214462,0.056477,1.289633,0.406479,0.418759,0.383996,0.247534,7.225916,1.592545,0.841789,0.265391,0.089877,10.081490,2.179753,0.867888,0.268202,0.080707,2.123965,1.122299,0.760274,0.447313,0.275056,16.806723,3.721546,1.391253,0.452198,0.140874
1717572952.842456,21.000000,1.000000,4427.563965,4440.544922,4404.006348,4339.551270,4441.858887,4430.352539,4494.871582,4450.705078,4568.493652,4472.563965,4577.051270,4616.378418,4437.948730,4522.532227,0.000000,0.000000,1.000000,,,,0.000000,4.000000,4.000000,4.000000,4.000000,4.000000,4.000000,4.000000,4.000000,4.000000,4.000000,4.000000,4.000000,4.000000,4.000000,100.000000,,,,,,,,,,,,,,,,,,,,,,,,,,,,,,,,,,,,,,,,,,,,,,,,,,,,,,,,,,,,,,,,,,,,,,,,,,,,,,,,,,,,,,,,,,,,,,,,,,,,,,,,,,,,,,,,,,,,,,,,,,,,,,,,,,,,,,,,,,,,,,,
1717572952.850264,22.000000,1.000000,4426.367676,4435.982910,4402.436035,4335.213867,4438.333496,4427.649414,4493.461426,4449.102539,4565.085449,4466.196777,4573.461426,4613.888672,4432.008789,4519.786133,0.000000,0.000000,1.000000,,,,0.000000,4.000000,4.000000,4.000000,4.000000,4.000000,4.000000,4.000000,4.000000,4.000000,4.000000,4.000000,4.000000,4.000000,4.000000,100.000000,,,,,,,,,,,,,,,,,,,,,,,,,,,,,,,,,,,,,,,,,,,,,,,,,,,,,,,,,,,,,,,,,,,,,,,,,,,,,,,,,,,,,,,,,,,,,,,,,,,,,,,,,,,,,,,,,,,,,,,,,,,,,,,,,,,,,,,,,,,,,,,
1717572952.858072,23.000000,1.000000,4425.170898,4431.420898,4400.865234,4330.875977,4434.807617,4424.946777,4492.051270,4447.500000,4561.677246,4459.829102,4569.871582,4611.399414,4426.068359,4517.040527,0.000000,0.000000,1.000000,,,,0.000000,4.000000,4.000000,4.000000,4.000000,4.000000,4.000000,4.000000,4.000000,4.000000,4.000000,4.000000,4.000000,4.000000,4.000000,100.000000,,,,,,,,,,,,,,,,,,,,,,,,,,,,,,,,,,,,,,,,,,,,,,,,,,,,,,,,,,,,,,,,,,,,,,,,,,,,,,,,,,,,,,,,,,,,,,,,,,,,,,,,,,,,,,,,,,,,,,,,,,,,,,,,,,,,,,,,,,,,,,,
1717572952.865880,24.000000,1.000000,4423.974121,4426.858887,4399.294922,4326.538574,4431.282227,4422.243652,4490.641113,4445.897461,4558.269043,4453.461426,4566.282227,4608.910156,4420.128418,4514.294922,0.000000,0.000000,1.000000,,,,0.000000,4.000000,4.000000,4.000000,4.000000,4.000000,4.000000,4.000000,4.000000,4.000000,4.000000,4.000000,4.000000,4.000000,4.000000,100.000000,,,,,,,,,,,,,,,,,6.000000,0.000000,0.471626,-0.571655,-0.315735,-0.592529,0.946771,-0.203516,0.136003,-28.460915,-34.676800,24.944323,,,,,,,,,,,,,,,,,,,,,,,,,,,,,,,,,,,,,,,,0.000000,0.000000,1.000000,0.000000,512.000000,0.116718,,,,,,,,,,,,,,,,,,,,,,,,,,,,,,,,,,,,,,,,,,,,,,,,,,,,,,,,,,,,,,,,,,,,,,
1717572952.873688,25.000000,1.000000,4422.777832,4422.296875,4397.724121,4322.200684,4427.756348,4419.540527,4489.230957,4444.294922,4554.861328,4447.094238,4562.692383,4606.420898,4414.187988,4511.549316,0.000000,0.000000,1.000000,,,,0.000000,4.000000,4.000000,4.000000,4.000000,4.000000,4.000000,4.000000,4.000000,4.000000,4.000000,4.000000,4.000000,4.000000,4.000000,100.000000,,,,,,,,,,,,,,,,,,,,,,,,,,,,,,,,,,,,,,,,,,,,,,,,,,,,,,,,,,,,,,,,,,,,,,,,,,,,,,,,,,,,,,,,,,,,,,,,,,,,,,,,,,,,,,,,,,,,,,,,,,,,,,,,,,,,,,,,,,,,,,,
1717572952.881496,26.000000,1.000000,4421.581055,4417.734863,4396.153809,4317.863281,4424.230957,4416.837402,4487.820313,4442.692383,4551.453125,4440.726563,4559.102539,4603.931641,4408.248047,4508.803223,0.000000,0.000000,1.000000,,,,0.000000,4.000000,4.000000,4.000000,4.000000,4.000000,4.000000,4.000000,4.000000,4.000000,4.000000,4.000000,4.000000,4.000000,4.000000,100.000000,,,,,,,,,,,,,,,,,,,,,,,,,,,,,,,,,,,,,,,,,,,,,,,,,,,,,,,,,,,,,,,,,,,,,,,,,,,,,,,,,,,,,,,,,,,,,,,,,,,,,,,,,,,,,,,,,,,,,,,,,,,,,,,,,,,,,,,,,,,,,,,
1717572952.889304,27.000000,1.000000,4420.384766,4413.172852,4394.583496,4313.525879,4420.705078,4414.134766,4486.410156,4441.089844,4548.044922,4434.358887,4555.512695,4601.442383,4402.307617,4506.057617,0.000000,0.000000,1.000000,,,,0.000000,4.000000,4.000000,4.000000,4.000000,4.000000,4.000000,4.000000,4.000000,4.000000,4.000000,4.000000,4.000000,4.000000,4.000000,100.000000,,,,,,,,,,,,,,,,,,,,,,,,,,,,,,,,,,,,,,,,,,,,,,,,,,,,,,,,,,,,,,,,,,,,,,,,,,,,,,,,,,,,,,,,,,,,,,,,,,,,,,,,,,,,,,,,,,,,,,,,,,,,,,,,,,,,,,,,,,,,,,,
1717572952.897112,28.000000,1.000000,4419.187988,4408.611328,4393.012695,4309.187988,4417.179688,4411.431641,4485.000000,4439.487305,4544.636719,4427.991211,4551.922852,4598.953125,4396.367676,4503.312012,0.000000,0.000000,1.000000,,,,0.000000,4.000000,4.000000,4.000000,4.000000,4.000000,4.000000,4.000000,4.000000,4.000000,4.000000,4.000000,4.000000,4.000000,4.000000,100.000000,,,,,,,,,,,,,,,,,7.000000,0.000000,0.475622,-0.572327,-0.314575,-0.589294,0.978513,-0.208888,0.129654,-28.281490,-34.825787,25.133223,,,,,,,,,,,,,,,,,,,,,,,,,,,,,,,,,,,,,,,,0.000000,0.000000,1.000000,0.000000,512.000000,0.116718,,,,,,,,,,,,,,,,,,,,,,,,,,,,,,,,,,,,,,,,,,,,,,,,,,,,,,,,,,,,,,,,,,,,,,
1717572952.904920,29.000000,1.000000,4417.991211,4404.049316,4391.442383,4304.850586,4413.653809,4408.728516,4483.589844,4437.884766,4541.228516,4421.624023,4548.333496,4596.463867,4390.427246,4500.566406,0.000000,0.000000,1.000000,,,,0.000000,4.000000,4.000000,4.000000,4.000000,4.000000,4.000000,4.000000,4.000000,4.000000,4.000000,4.000000,4.000000,4.000000,4.000000,100.000000,,,,,,,,,,,,,,,,,,,,,,,,,,,,,,,,,,,,,,,,,,,,,,,,,,,,,,,,,,,,,,,,,,,,,,,,,,,,,,,,,,,,,,,,,,,,,,,,,,,,,,,,,,,,,,,,,,,,,,,,,,,,,,,,,,,,,,,,,,,,,,,
1717572952.912728,30.000000,0.000000,4416.794922,4399.487305,4389.871582,4300.512695,4410.128418,4406.025879,4482.179688,4436.282227,4537.820313,4415.256348,4544.743652,4593.974121,4384.487305,4497.820313,0.000000,0.000000,1.000000,,,,0.000000,4.000000,4.000000,4.000000,4.000000,4.000000,4.000000,4.000000,4.000000,4.000000,4.000000,4.000000,4.000000,4.000000,4.000000,100.000000,,,,,,,,,,,,,,,,,,,,,,,,,,,,,,,,,,,,,,,,,,,,,,,,,,,,,,,,,,,,,,,,,,,,,,,,,,,,,,,,,,,,,,,,,,,,,,,,,,,,,,,,,,,,,,,,,,,,,,,,,,,,,,,,,,,,,,,,,,,,,,,
1717572952.920536,31.000000,1.000000,4422.509277,4403.187012,4395.714355,4316.556641,4419.560547,4412.033203,4491.392090,4444.963379,4546.117188,4419.358887,4557.344238,4603.937500,4395.787598,4506.978027,0.000000,0.000000,1.000000,,,,0.000000,4.000000,4.000000,4.000000,4.000000,4.000000,4.000000,4.000000,4.000000,4.000000,4.000000,4.000000,4.000000,4.000000,4.000000,100.000000,,,,,,,,,,,,,,,,,,,,,,,,,,,,,,,,,,,,,,,,,,,,,,,,,,,,,,,,,,,,,,,,,,,,,,,,,,,,,,,,,,,,,,,,,,,,,,,,,,,,,,,,,,,,,,,,,,,,,,,,,,,,,,,,,,,,,,,,,,,,,,,
1717572952.928344,32.000000,1.000000,4428.223633,4406.886230,4401.556641,4332.600586,4428.992676,4418.040527,4500.604492,4453.644531,4554.414063,4423.461426,4569.944824,4613.900879,4407.087891,4516.135742,0.000000,0.000000,1.000000,,,,0.000000,4.000000,4.000000,4.000000,4.000000,4.000000,4.000000,4.000000,4.000000,4.000000,4.000000,4.000000,4.000000,4.000000,4.000000,100.000000,,,,,,,,,,,,,,,,,8.000000,0.000000,0.475622,-0.572327,-0.314575,-0.589294,0.990722,-0.216213,0.125748,-27.843872,-35.189167,25.593952,,,,,,,,,,,,,,,,,,,,,,,,,,,,,,,,,,,,,,,,0.000000,0.000000,1.000000,0.000000,512.000000,0.116718,,,,,,,,,,,,,,,,,,,,,,,,,,,,,,,,,,,,,,,,,,,,,,,,,,,,,,,,,,,,,,,,,,,,,,
1717572952.936152,33.000000,1.000000,4433.937500,4410.585938,4407.399414,4348.644531,4438.424805,4424.047852,4509.816895,4462.326172,4562.710449,4427.563965,4582.545898,4623.864258,4418.388184,4525.292969,0.000000,0.000000,1.000000,,,,0.000000,4.000000,4.000000,4.000000,4.000000,4.000000,4.000000,4.000000,4.000000,4.000000,4.000000,4.000000,4.000000,4.000000,4.000000,100.000000,,,,,,,,,,,,,,,,,,,,,,,,,,,,,,,,,,,,,,,,,,,,,,,,,,,,,,,,,,,,,,,,,,,,,,,,,,,,,,,,,,,,,,,,,,,,,,,,,,,,,,,,,,,,,,,,,,,,,,,,,,,,,,,,,,,,,,,,,,,,,,,
1717572952.943960,34.000000,1.000000,4439.651855,4414.285645,4413.241699,4364.688477,4447.856934,4430.055176,4519.029297,4471.007324,4571.007324,4431.666504,4595.146484,4633.827637,4429.688477,4534.450684,0.000000,0.000000,1.000000,,,,0.000000,4.000000,4.000000,4.000000,4.000000,4.000000,4.000000,4.000000,4.000000,4.000000,4.000000,4.000000,4.000000,4.000000,4.000000,100.000000,,,,,,,,,,,,,,,,,,,,,,,,,,,,,,,,,,,,,,,,,,,,,,,,,,,,,,,,,,,,,,,,,,,,,,,,,,,,,,,,,,,,,,,,,,,,,,,,,,,,,,,,,,,,,,,,,,,,,,,,,,,,,,,,,,,,,,,,,,,,,,,
1717572952.951767,35.000000,1.000000,4445.366211,4417.985352,4419.084473,4380.732422,4457.289551,4436.062500,4528.241699,4479.688477,4579.304199,4435.769043,4607.747070,4643.791016,4440.988770,4543.607910,0.000000,0.000000,1.000000,,,,0.000000,4.000000,4.000000,4.000000,4.000000,4.000000,4.000000,4.000000,4.000000,4.000000,4.000000,4.000000,4.000000,4.000000,4.000000,100.000000,,,,,,,,,,,,,,,,,,,,,,,,,,,,,,,,,,,,,,,,,,,,,,,,,,,,,,,,,,,,,,,,,,,,,,,,,,,,,,,,,,,,,,,,,,,,,,,,,,,,,,,,,,,,,,,,,,,,,,,,,,,,,,,,,,,,,,,,,,,,,,,
1717572952.959575,36.000000,1.000000,4451.080566,4421.685059,4424.926758,4396.776367,4466.721680,4442.069824,4537.454102,4488.370117,4587.600586,4439.871582,4620.348145,4653.754395,4452.289551,4552.765625,0.000000,0.000000,1.000000,,,,0.000000,4.000000,4.000000,4.000000,4.000000,4.000000,4.000000,4.000000,4.000000,4.000000,4.000000,4.000000,4.000000,4.000000,4.000000,100.000000,,,,,,,,,,,,,,,,,9.000000,0.000000,0.478610,-0.573059,-0.313843,-0.586548,0.965816,-0.221096,0.142351,-27.354399,-35.642647,25.586275,1.000000,0.000000,0.000000,,,,,,,,,,,,,,,,,,,,,,,,,,,,,,,,,,,,,0.000000,0.000000,1.000000,0.000000,512.000000,0.355106,9.945644,2.275367,0.838650,0.242949,0.069250,13.845960,2.074937,0.665797,0.385020,0.094471,10.053386,2.627583,1.224449,0.416874,0.117562,10.264464,2.913484,2.716541,0.893014,0.294412,17.687733,4.907509,2.368622,1.041944,0.420866,1.556485,0.435472,0.345700,0.078489,0.031556,3.821098,0.999312,0.770980,0.178059,0.051572,1.140983,0.356114,0.402644,0.160686,0.061511,3.108156,1.231898,0.900584,0.306071,0.075294,1.449961,0.499341,0.607602,0.528004,0.347313,10.778413,2.328411,1.185643,0.343488,0.108162,16.014967,3.303851,1.286755,0.366920,0.105002,3.010689,1.461302,0.996448,0.623922,0.384282,26.214743,5.502646,2.018290,0.629854,0.193929
1717572952.967383,37.000000,0.000000,4456.794922,4425.384766,4430.769043,4412.820313,4476.153809,4448.077148,4546.666504,4497.051270,4595.897461,4443.974121,4632.948730,4663.717773,4463.589844,4561.922852,0.000000,0.000000,1.000000,,,,0.000000,4.000000,4.000000,4.000000,4.000000,4.000000,4.000000,4.000000,4.000000,4.000000,4.000000,4.000000,4.000000,4.000000,4.000000,100.000000,,,,,,,,,,,,,,,,,,,,,,,,,,,,,,,,,,,,,,,,,,,,,,,,,,,,,,,,,,,,,,,,,,,,,,,,,,,,,,,,,,,,,,,,,,,,,,,,,,,,,,,,,,,,,,,,,,,,,,,,,,,,,,,,,,,,,,,,,,,,,,,
1717572952.975191,38.000000,0.000000,4443.589844,4457.179688,4421.922852,4320.897461,4472.563965,4449.230957,4542.948730,4492.436035,4593.205078,4444.487305,4613.333496,4649.743652,4459.871582,4550.000000,0.000000,0.000000,1.000000,,,,0.000000,4.000000,4.000000,4.000000,4.000000,4.000000,4.000000,4.000000,4.000000,4.000000,4.000000,4.000000,4.000000,4.000000,4.000000,100.000000,,,,,,,,,,,,,,,,,,,,,,,,,,,,,,,,,,,,,,,,,,,,,,,,,,,,,,,,,,,,,,,,,,,,,,,,,,,,,,,,,,,,,,,,,,,,,,,,,,,,,,,,,,,,,,,,,,,,,,,,,,,,,,,,,,,,,,,,,,,,,,,
1717572952.982999,39.000000,0.000000,4431.538574,4405.641113,4403.846191,4287.179688,4466.153809,4430.384766,4514.615234,4466.538574,4571.794922,4430.769043,4580.128418,4621.922852,4441.282227,4527.179688,0.000000,0.000000,1.000000,,,,0.000000,4.000000,4.000000,4.000000,4.000000,4.000000,4.000000,4.000000,4.000000,4.000000,4.000000,4.000000,4.000000,4.000000,4.000000,100.000000,,,,,,,,,,,,,,,,,,,,,,,,,,,,,,,,,,,,,,,,,,,,,,,,,,,,,,,,,,,,,,,,,,,,,,,,,,,,,,,,,,,,,,,,,,,,,,,,,,,,,,,,,,,,,,,,,,,,,,,,,,,,,,,,,,,,,,,,,,,,,,,
1717572952.990807,40.000000,0.000000,4448.077148,4401.794922,4417.179688,4350.384766,4480.256348,4444.358887,4541.794922,4488.846191,4599.743652,4461.538574,4615.641113,4650.256348,4470.641113,4551.794922,0.000000,0.000000,1.000000,,,,0.000000,4.000000,4.000000,4.000000,4.000000,4.000000,4.000000,4.000000,4.000000,4.000000,4.000000,4.000000,4.000000,4.000000,4.000000,100.000000,,,,,,,,,,,,,,,,,10.000000,0.000000,0.482201,-0.573425,-0.312683,-0.583862,0.977536,-0.215236,0.151630,-27.235624,-35.695045,25.594315,,,,,,,,,,,,,,,,,,,,,,,,,,,,,,,,,,,,,,,,0.000000,0.000000,1.000000,0.000000,512.000000,0.355106,,,,,,,,,,,,,,,,,,,,,,,,,,,,,,,,,,,,,,,,,,,,,,,,,,,,,,,,,,,,,,,,,,,,,,
1717572952.998615,41.000000,0.000000,4456.153809,4469.871582,4433.077148,4345.769043,4489.871582,4476.410156,4584.358887,4524.487305,4635.128418,4502.179688,4656.538574,4687.563965,4505.128418,4579.358887,0.000000,0.000000,1.000000,,,,0.000000,4.000000,4.000000,4.000000,4.000000,4.000000,4.000000,4.000000,4.000000,4.000000,4.000000,4.000000,4.000000,4.000000,4.000000,100.000000,,,,,,,,,,,,,,,,,,,,,,,,,,,,,,,,,,,,,,,,,,,,,,,,,,,,,,,,,,,,,,,,,,,,,,,,,,,,,,,,,,,,,,,,,,,,,,,,,,,,,,,,,,,,,,,,,,,,,,,,,,,,,,,,,,,,,,,,,,,,,,,
1717572953.006523,42.000000,0.000000,4447.436035,4462.307617,4424.615234,4297.692383,4482.820313,4459.230957,4555.000000,4502.051270,4606.794922,4488.205078,4632.948730,4667.563965,4495.641113,4566.153809,0.000000,0.000000,1.000000,,,,0.000000,4.000000,4.000000,4.000000,4.000000,4.000000,4.000000,4.000000,4.000000,4.000000,4.000000,4.000000,4.000000,4.000000,4.000000,100.000000,,,,,,,,,,,,,,,,,,,,,,,,,,,,,,,,,,,,,,,,,,,,,,,,,,,,,,,,,,,,,,,,,,,,,,,,,,,,,,,,,,,,,,,,,,,,,,,,,,,,,,,,,,,,,,,,,,,,,,,,,,,,,,,,,,,,,,,,,,,,,,,
1717572953.014431,43.000000,1.000000,4453.942383,4469.294922,4428.910156,4317.948730,4485.416504,4458.621582,4555.865234,4502.532227,4605.641113,4476.250000,4636.025879,4671.987305,4494.134766,4570.512695,0.000000,0.000000,1.000000,,,,0.000000,4.000000,4.000000,4.000000,4.000000,4.000000,4.000000,4.000000,4.000000,4.000000,4.000000,4.000000,4.000000,4.000000,4.000000,100.000000,,,,,,,,,,,,,,,,,,,,,,,,,,,,,,,,,,,,,,,,,,,,,,,,,,,,,,,,,,,,,,,,,,,,,,,,,,,,,,,,,,,,,,,,,,,,,,,,,,,,,,,,,,,,,,,,,,,,,,,,,,,,,,,,,,,,,,,,,,,,,,,
1717572953.022239,44.000000,1.000000,4460.448730,4476.282227,4433.205078,4338.205078,4488.012695,4458.012695,4556.730957,4503.012695,4604.487305,4464.294922,4639.102539,4676.410156,4492.628418,4574.871582,0.000000,0.000000,1.000000,,,,0.000000,4.000000,4.000000,4.000000,4.000000,4.000000,4.000000,4.000000,4.000000,4.000000,4.000000,4.000000,4.000000,4.000000,4.000000,100.000000,,,,,,,,,,,,,,,,,11.000000,1.000000,0.484021,-0.573486,-0.311829,-0.582743,0.970211,-0.223050,0.162536,-27.140146,-35.724915,25.626675,,,,,,,,,,,,,,,,,,,,,,,,,,,,,,,,,,,,,,,,0.000000,0.000000,1.000000,0.000000,512.000000,0.355106,,,,,,,,,,,,,,,,,,,,,,,,,,,,,,,,,,,,,,,,,,,,,,,,,,,,,,,,,,,,,,,,,,,,,,
1717572953.030047,45.000000,1.000000,4466.955078,4483.269043,4437.500000,4358.461426,4490.608887,4457.403809,4557.596191,4503.493652,4603.333496,4452.339844,4642.179688,4680.833496,4491.121582,4579.230957,0.000000,0.000000,1.000000,,,,0.000000,4.000000,4.000000,4.000000,4.000000,4.000000,4.000000,4.000000,4.000000,4.000000,4.000000,4.000000,4.000000,4.000000,4.000000,100.000000,,,,,,,,,,,,,,,,,,,,,,,,,,,,,,,,,,,,,,,,,,,,,,,,,,,,,,,,,,,,,,,,,,,,,,,,,,,,,,,,,,,,,,,,,,,,,,,,,,,,,,,,,,,,,,,,,,,,,,,,,,,,,,,,,,,,,,,,,,,,,,,
1717572953.037855,46.000000,0.000000,4473.461426,4490.256348,4441.794922,4378.717773,4493.205078,4456.794922,4558.461426,4503.974121,4602.179688,4440.384766,4645.256348,4685.256348,4489.615234,4583.589844,0.000000,0.000000,1.000000,,,,0.000000,4.000000,4.000000,4.000000,4.000000,4.000000,4.000000,4.000000,4.000000,4.000000,4.000000,4.000000,4.000000,4.000000,4.000000,100.000000,,,,,,,,,,,,,,,,,,,,,,,,,,,,,,,,,,,,,,,,,,,,,,,,,,,,,,,,,,,,,,,,,,,,,,,,,,,,,,,,,,,,,,,,,,,,,,,,,,,,,,,,,,,,,,,,,,,,,,,,,,,,,,,,,,,,,,,,,,,,,,,
1717572953.045563,47.000000,0.000000,4467.051270,4398.846191,4436.282227,4390.256348,4492.436035,4459.358887,4561.410156,4505.128418,4608.717773,4437.436035,4627.051270,4679.230957,4469.615234,4577.051270,0.000000,0.000000,1.000000,,,,0.000000,4.000000,4.000000,4.000000,4.000000,4.000000,4.000000,4.000000,4.000000,4.000000,4.000000,4.000000,4.000000,4.000000,4.000000,100.000000,,,,,,,,,,,,,,,,,,,,,,,,,,,,,,,,,,,,,,,,,,,,,,,,,,,,,,,,,,,,,,,,,,,,,,,,,,,,,,,,,,,,,,,,,,,,,,,,,,,,,,,,,,,,,,,,,,,,,,,,,,,,,,,,,,,,,,,,,,,,,,,
1717572953.053571,48.000000,1.000000,4469.125000,4401.870117,4438.620117,4392.699707,4493.989258,4460.241211,4563.016602,4506.033203,4611.689453,4447.149414,4631.387695,4682.058594,4478.589844,4580.339355,212.470581,0.000000,1.000000,,,,0.000000,4.000000,4.000000,4.000000,4.000000,4.000000,4.000000,4.000000,4.000000,4.000000,4.000000,4.000000,4.000000,4.000000,4.000000,100.000000,,,,,,,,,,,,,,,,,12.000000,1.000000,0.485841,-0.573547,-0.310974,-0.581624,0.962886,-0.230863,0.173442,-27.044668,-35.754787,25.659035,,,,,,,,,,,,,,,,,,,,,,,,,,,,,,,,,,,,,,,,0.000000,0.000000,1.000000,0.000000,512.000000,0.355106,,,,,,,,,,,,,,,,,,,,,,,,,,,,,,,,,,,,,,,,,,,,,,,,,,,,,,,,,,,,,,,,,,,,,,
1717572953.061379,49.000000,1.000000,4471.199219,4404.894531,4440.958008,4395.143066,4495.542969,4461.123535,4564.623047,4506.937988,4614.660645,4456.862793,4635.724121,4684.886719,4487.563965,4583.627441,424.941162,0.000000,1.000000,,,,0.000000,4.000000,4.000000,4.000000,4.000000,4.000000,4.000000,4.000000,4.000000,4.000000,4.000000,4.000000,4.000000,4.000000,4.000000,100.000000,,,,,,,,,,,,,,,,,,,,,,,,,,,,,,,,,,,,,,,,,,,,,,,,,,,,,,,,,,,,,,,,,,,,,,,,,,,,,,,,,,,,,,,,,,,,,,,,,,,,,,,,,,,,,,,,,,,,,,,,,,,,,,,,,,,,,,,,,,,,,,,
1717572953.069187,50.000000,1.000000,4473.272949,4407.918457,4443.295410,4397.586914,4497.096680,4462.005859,4566.229492,4507.843262,4617.631836,4466.576172,4640.060547,4687.714844,4496.538574,4586.915527,637.411743,0.000000,1.000000,,,,0.000000,4.000000,4.000000,4.000000,4.000000,4.000000,4.000000,4.000000,4.000000,4.000000,4.000000,4.000000,4.000000,4.000000,4.000000,100.000000,,,,,,,,,,,,,,,,,,,,,,,,,,,,,,,,,,,,,,,,,,,,,,,,,,,,,,,,,,,,,,,,,,,,,,,,,,,,,,,,,,,,,,,,,,,,,,,,,,,,,,,,,,,,,,,,,,,,,,,,,,,,,,,,,,,,,,,,,,,,,,,
1717572953.076995,51.000000,1.000000,4475.346680,4410.942871,4445.633301,4400.030273,4498.649902,4462.888184,4567.835449,4508.748047,4620.603516,4476.289551,4644.396484,4690.542969,4505.512695,4590.203613,849.882324,0.000000,1.000000,,,,0.000000,4.000000,4.000000,4.000000,4.000000,4.000000,4.000000,4.000000,4.000000,4.000000,4.000000,4.000000,4.000000,4.000000,4.000000,100.000000,,,,,,,,,,,,,,,,,,,,,,,,,,,,,,,,,,,,,,,,,,,,,,,,,,,,,,,,,,,,,,,,,,,,,,,,,,,,,,,,,,,,,,,,,,,,,,,,,,,,,,,,,,,,,,,,,,,,,,,,,,,,,,,,,,,,,,,,,,,,,,,
1717572953.084803,52.000000,1.000000,4477.420898,4413.966797,4447.971191,4402.473633,4500.203613,4463.770508,4569.441895,4509.653320,4623.574707,4486.002930,4648.732910,4693.371094,4514.487305,4593.491699,1062.352905,0.000000,1.000000,,,,0.000000,4.000000,4.000000,4.000000,4.000000,4.000000,4.000000,4.000000,4.000000,4.000000,4.000000,4.000000,4.000000,4.000000,4.000000,100.000000,-1.000000,25.000000,1.000000,3.000000,1.000000,3.000000,1.000000,1.000000,1.000000,1.000000,3.000000,1.000000,1.000000,3.000000,1.000000,1.000000,13.000000,0.000000,0.487660,-0.573608,-0.310120,-0.580505,0.955561,-0.238677,0.184349,-26.949190,-35.784657,25.691395,1.000000,0.000000,0.000000,,,,,,,,,,,,,,,,,,,,,,,,,,,,,,,,,,,,,0.000000,0.000000,1.000000,0.000000,512.000000,0.460459,13.411470,2.969689,1.083124,0.297441,0.085483,20.832693,3.030940,0.953755,0.539435,0.140388,13.362102,3.391614,1.542902,0.506662,0.144170,14.648864,4.239370,4.108357,1.250106,0.387123,22.805670,6.069124,2.897230,1.273570,0.516467,1.942548,0.689395,0.541156,0.114753,0.044575,4.787053,1.426288,1.077636,0.236362,0.070354,1.371073,0.498883,0.537496,0.201853,0.072527,4.347541,1.697474,1.214314,0.400129,0.099402,1.573255,0.598145,0.797208,0.647893,0.421620,14.169041,3.100023,1.547258,0.418016,0.128655,21.658421,4.395125,1.717311,0.456400,0.130452,4.011358,1.841447,1.204253,0.776911,0.467543,34.599190,6.997150,2.544191,0.763110,0.237201
1717572953.092611,53.000000,1.000000,4479.494629,4416.990723,4450.309082,4404.916992,4501.757324,4464.653320,4571.048340,4510.558105,4626.545898,4495.716309,4653.069336,4696.199219,4523.461426,4596.779785,1274.823486,0.000000,1.000000,,,,0.000000,4.000000,4.000000,4.000000,4.000000,4.000000,4.000000,4.000000,4.000000,4.000000,4.000000,4.000000,4.000000,4.000000,4.000000,100.000000,,,,,,,,,,,,,,,,,,,,,,,,,,,,,,,,,,,,,,,,,,,,,,,,,,,,,,,,,,,,,,,,,,,,,,,,,,,,,,,,,,,,,,,,,,,,,,,,,,,,,,,,,,,,,,,,,,,,,,,,,,,,,,,,,,,,,,,,,,,,,,,
1717572953.100419,54.000000,1.000000,4481.568848,4420.015137,4452.646973,4407.360352,4503.310547,4465.535645,4572.654785,4511.462891,4629.517578,4505.429688,4657.405762,4699.027344,4532.436035,4600.067871,1487.294067,0.000000,1.000000,,,,0.000000,4.000000,4.000000,4.000000,4.000000,4.000000,4.000000,4.000000,4.000000,4.000000,4.000000,4.000000,4.000000,4.000000,4.000000,100.000000,,,,,,,,,,,,,,,,,,,,,,,,,,,,,,,,,,,,,,,,,,,,,,,,,,,,,,,,,,,,,,,,,,,,,,,,,,,,,,,,,,,,,,,,,,,,,,,,,,,,,,,,,,,,,,,,,,,,,,,,,,,,,,,,,,,,,,,,,,,,,,,
1717572953.108227,55.000000,1.000000,4483.642578,4423.039063,4454.984863,4409.803711,4504.864258,4466.417969,4574.260742,4512.368164,4632.488770,4515.143066,4661.742188,4701.854980,4541.410156,4603.355957,1699.764648,0.000000,1.000000,,,,0.000000,4.000000,4.000000,4.000000,4.000000,4.000000,4.000000,4.000000,4.000000,4.000000,4.000000,4.000000,4.000000,4.000000,4.000000,100.000000,,,,,,,,,,,,,,,,,,,,,,,,,,,,,,,,,,,,,,,,,,,,,,,,,,,,,,,,,,,,,,,,,,,,,,,,,,,,,,,,,,,,,,,,,,,,,,,,,,,,,,,,,,,,,,,,,,,,,,,,,,,,,,,,,,,,,,,,,,,,,,,
1717572953.116035,56.000000,1.000000,4485.716309,4426.063477,4457.322754,4412.247559,4506.417969,4467.300293,4575.867188,4513.272949,4635.459961,4524.856934,4666.078613,4704.683105,4550.384766,4606.644043,1912.235352,0.000000,1.000000,,,,0.000000,4.000000,4.000000,4.000000,4.000000,4.000000,4.000000,4.000000,4.000000,4.000000,4.000000,4.000000,4.000000,4.000000,4.000000,100.000000,,,,,,,,,,,,,,,,,14.000000,1.000000,0.490470,-0.574127,-0.307505,-0.578939,0.958654,-0.249990,0.185407,-26.918020,-35.812584,25.741446,,,,,,,,,,,,,,,,,,,,,,,,,,,,,,,,,,,,,,,,0.000000,0.000000,1.000000,0.000000,512.000000,0.460459,,,,,,,,,,,,,,,,,,,,,,,,,,,,,,,,,,,,,,,,,,,,,,,,,,,,,,,,,,,,,,,,,,,,,,
1717572953.123843,57.000000,1.000000,4487.790527,4429.087402,4459.660645,4414.690918,4507.971191,4468.182617,4577.473633,4514.178223,4638.431152,4534.570313,4670.414551,4707.511230,4559.358887,4609.932129,2124.705811,0.000000,1.000000,,,,0.000000,4.000000,4.000000,4.000000,4.000000,4.000000,4.000000,4.000000,4.000000,4.000000,4.000000,4.000000,4.000000,4.000000,4.000000,100.000000,,,,,,,,,,,,,,,,,,,,,,,,,,,,,,,,,,,,,,,,,,,,,,,,,,,,,,,,,,,,,,,,,,,,,,,,,,,,,,,,,,,,,,,,,,,,,,,,,,,,,,,,,,,,,,,,,,,,,,,,,,,,,,,,,,,,,,,,,,,,,,,
1717572953.131650,58.000000,1.000000,4489.864258,4432.111816,4461.998535,4417.134277,4509.524902,4469.064941,4579.080078,4515.083008,4641.402832,4544.283691,4674.750977,4710.339355,4568.333496,4613.220215,2337.176514,0.000000,1.000000,,,,0.000000,4.000000,4.000000,4.000000,4.000000,4.000000,4.000000,4.000000,4.000000,4.000000,4.000000,4.000000,4.000000,4.000000,4.000000,100.000000,,,,,,,,,,,,,,,,,,,,,,,,,,,,,,,,,,,,,,,,,,,,,,,,,,,,,,,,,,,,,,,,,,,,,,,,,,,,,,,,,,,,,,,,,,,,,,,,,,,,,,,,,,,,,,,,,,,,,,,,,,,,,,,,,,,,,,,,,,,,,,,
1717572953.139458,59.000000,1.000000,4491.937988,4435.135742,4464.336426,4419.577637,4511.078613,4469.947266,4580.686035,4515.987793,4644.374023,4553.997070,4679.087402,4713.167480,4577.307617,4616.508301,2549.646973,0.000000,1.000000,,,,0.000000,4.000000,4.000000,4.000000,4.000000,4.000000,4.000000,4.000000,4.000000,4.000000,4.000000,4.000000,4.000000,4.000000,4.000000,100.000000,,,,,,,,,,,,,,,,,,,,,,,,,,,,,,,,,,,,,,,,,,,,,,,,,,,,,,,,,,,,,,,,,,,,,,,,,,,,,,,,,,,,,,,,,,,,,,,,,,,,,,,,,,,,,,,,,,,,,,,,,,,,,,,,,,,,,,,,,,,,,,,
1717572953.147266,60.000000,1.000000,4494.012207,4438.159668,4466.674316,4422.020996,4512.631836,4470.829590,4582.292480,4516.893066,4647.345215,4563.710449,4683.423828,4715.995605,4586.282227,4619.796387,2762.117676,0.000000,1.000000,,,,0.000000,4.000000,4.000000,4.000000,4.000000,4.000000,4.000000,4.000000,4.000000,4.000000,4.000000,4.000000,4.000000,4.000000,4.000000,100.000000,,,,,,,,,,,,,,,,,15.000000,1.000000,0.493280,-0.574646,-0.304891,-0.577372,0.961747,-0.261303,0.186465,-26.886852,-35.840515,25.791496,,,,,,,,,,,,,,,,,,,,,,,,,,,,,,,,,,,,,,,,0.000000,0.000000,1.000000,0.000000,512.000000,0.460459,,,,,,,,,,,,,,,,,,,,,,,,,,,,,,,,,,,,,,,,,,,,,,,,,,,,,,,,,,,,,,,,,,,,,,
1717572953.155074,61.000000,1.000000,4496.085938,4441.184082,4469.012207,4424.464355,4514.185547,4471.711914,4583.898926,4517.797852,4650.316895,4573.423828,4687.760254,4718.823730,4595.256348,4623.084473,2974.588135,0.000000,1.000000,,,,0.000000,4.000000,4.000000,4.000000,4.000000,4.000000,4.000000,4.000000,4.000000,4.000000,4.000000,4.000000,4.000000,4.000000,4.000000,100.000000,,,,,,,,,,,,,,,,,,,,,,,,,,,,,,,,,,,,,,,,,,,,,,,,,,,,,,,,,,,,,,,,,,,,,,,,,,,,,,,,,,,,,,,,,,,,,,,,,,,,,,,,,,,,,,,,,,,,,,,,,,,,,,,,,,,,,,,,,,,,,,,
1717572953.162882,62.000000,1.000000,4498.159668,4444.208008,4471.350098,4426.908203,4515.739258,4472.594238,4585.505371,4518.702637,4653.288086,4583.137207,4692.096680,4721.651367,4604.230957,4626.372559,3187.058838,0.000000,1.000000,,,,0.000000,4.000000,4.000000,4.000000,4.000000,4.000000,4.000000,4.000000,4.000000,4.000000,4.000000,4.000000,4.000000,4.000000,4.000000,100.000000,,,,,,,,,,,,,,,,,,,,,,,,,,,,,,,,,,,,,,,,,,,,,,,,,,,,,,,,,,,,,,,,,,,,,,,,,,,,,,,,,,,,,,,,,,,,,,,,,,,,,,,,,,,,,,,,,,,,,,,,,,,,,,,,,,,,,,,,,,,,,,,
1717572953.170690,63.000000,1.000000,4500.233887,4447.232422,4473.687988,4429.351563,4517.292480,4473.476563,4587.111816,4519.607910,4656.259277,4592.850586,4696.433105,4724.479492,4613.205078,4629.660645,3399.529297,0.000000,1.000000,,,,0.000000,4.000000,4.000000,4.000000,4.000000,4.000000,4.000000,4.000000,4.000000,4.000000,4.000000,4.000000,4.000000,4.000000,4.000000,100.000000,,,,,,,,,,,,,,,,,,,,,,,,,,,,,,,,,,,,,,,,,,,,,,,,,,,,,,,,,,,,,,,,,,,,,,,,,,,,,,,,,,,,,,,,,,,,,,,,,,,,,,,,,,,,,,,,,,,,,,,,,,,,,,,,,,,,,,,,,,,,,,,
1717572953.178498,64.000000,0.000000,4502.307617,4450.256348,4476.025879,4431.794922,4518.846191,4474.358887,4588.717773,4520.512695,4659.230957,4602.563965,4700.769043,4727.307617,4622.179688,4632.948730,3612.000000,0.000000,1.000000,,,,0.000000,4.000000,4.000000,4.000000,4.000000,4.000000,4.000000,4.000000,4.000000,4.000000,4.000000,4.000000,4.000000,4.000000,4.000000,100.000000,,,,,,,,,,,,,,,,,16.000000,1.000000,0.496090,-0.575165,-0.302277,-0.575806,0.964839,-0.272616,0.187523,-26.855684,-35.868446,25.841545,,,,,,,,,,,,,,,,,,,,,,,,,,,,,,,,,,,,,,,,0.000000,0.000000,1.000000,0.000000,512.000000,0.460459,,,,,,,,,,,,,,,,,,,,,,,,,,,,,,,,,,,,,,,,,,,,,,,,,,,,,,,,,,,,,,,,,,,,,,
1717572953.186406,65.000000,0.000000,4526.922852,4430.128418,4499.230957,4460.000000,4545.769043,4508.589844,4625.000000,4551.922852,4706.410156,4675.384766,4746.538574,4772.436035,4686.538574,4674.615234,5612.000000,0.000000,1.000000,,,,0.000000,4.000000,4.000000,4.000000,4.000000,4.000000,4.000000,4.000000,4.000000,4.000000,4.000000,4.000000,4.000000,4.000000,4.000000,100.000000,,,,,,,,,,,,,,,,,,,,,,,,,,,,,,,,,,,,,,,,,,,,,,,,,,,,,,,,,,,,,,,,,,,,,,,,,,,,,,,,,,,,,,,,,,,,,,,,,,,,,,,,,,,,,,,,,,,,,,,,,,,,,,,,,,,,,,,,,,,,,,,
1717572953.194314,66.000000,0.000000,4469.871582,4481.666504,4445.000000,4298.846191,4500.897461,4465.000000,4579.743652,4515.256348,4669.871582,4657.563965,4677.436035,4698.333496,4651.922852,4608.461426,3587.000000,0.000000,1.000000,,,,0.000000,4.000000,4.000000,4.000000,4.000000,4.000000,4.000000,4.000000,4.000000,4.000000,4.000000,4.000000,4.000000,4.000000,4.000000,100.000000,,,,,,,,,,,,,,,,,,,,,,,,,,,,,,,,,,,,,,,,,,,,,,,,,,,,,,,,,,,,,,,,,,,,,,,,,,,,,,,,,,,,,,,,,,,,,,,,,,,,,,,,,,,,,,,,,,,,,,,,,,,,,,,,,,,,,,,,,,,,,,,
1717572953.202222,67.000000,0.000000,4444.358887,4479.487305,4425.256348,4286.538574,4474.487305,4446.025879,4558.974121,4499.230957,4647.563965,4641.922852,4638.717773,4663.205078,4640.641113,4572.820313,3553.000000,0.000000,1.000000,,,,0.000000,4.000000,4.000000,4.000000,4.000000,4.000000,4.000000,4.000000,4.000000,4.000000,4.000000,4.000000,4.000000,4.000000,4.000000,100.000000,,,,,,,,,,,,,,,,,,,,,,,,,,,,,,,,,,,,,,,,,,,,,,,,,,,,,,,,,,,,,,,,,,,,,,,,,,,,,,,,,,,,,,,,,,,,,,,,,,,,,,,,,,,,,,,,,,,,,,,,,,,,,,,,,,,,,,,,,,,,,,,
1717572953.210330,68.000000,1.000000,4444.777832,4478.461426,4425.871582,4287.769043,4475.734863,4444.675293,4557.846191,4498.700684,4649.803223,4635.624023,4639.119629,4662.709473,4638.145508,4572.905762,5187.000000,0.000000,1.000000,,,,0.000000,4.000000,4.000000,4.000000,4.000000,4.000000,4.000000,4.000000,4.000000,4.000000,4.000000,4.000000,4.000000,4.000000,4.000000,100.000000,,,,,,,,,,,,,,,,,17.000000,1.000000,0.498900,-0.575684,-0.299662,-0.574239,0.967932,-0.283930,0.188581,-26.824514,-35.896378,25.891596,1.000000,0.000000,0.000000,,,,,,,,,,,,,,,,,,,,,,,,,,,,,,,,,,,,,0.000000,0.000000,1.000000,0.000000,512.000000,1.000000,15.362222,3.389005,1.231767,0.319118,0.095091,26.785311,3.815969,1.221049,0.657384,0.184842,15.147889,3.808386,1.708244,0.537478,0.157413,18.207184,5.590166,5.396700,1.516024,0.462511,25.154026,6.439050,3.052343,1.332910,0.545479,2.347435,0.969460,0.751321,0.160464,0.061578,5.339230,1.809483,1.360292,0.295935,0.094798,1.585936,0.673385,0.678736,0.245325,0.085761,5.427850,2.097373,1.474419,0.479112,0.127716,1.720292,0.684285,0.953722,0.718124,0.448325,16.145685,3.748738,1.853542,0.475077,0.154204,24.922882,5.168800,2.050109,0.514661,0.155091,5.233672,2.195094,1.347886,0.867868,0.502373,38.909603,7.758962,2.811483,0.810296,0.260477
1717572953.218138,69.000000,1.000000,4445.196777,4477.436035,4426.487305,4289.000000,4476.982910,4443.324707,4556.717773,4498.170898,4652.042969,4629.324707,4639.521484,4662.213867,4635.649414,4572.991211,5417.000000,0.000000,1.000000,,,,0.000000,4.000000,4.000000,4.000000,4.000000,4.000000,4.000000,4.000000,4.000000,4.000000,4.000000,4.000000,4.000000,4.000000,4.000000,100.000000,,,,,,,,,,,,,,,,,,,,,,,,,,,,,,,,,,,,,,,,,,,,,,,,,,,,,,,,,,,,,,,,,,,,,,,,,,,,,,,,,,,,,,,,,,,,,,,,,,,,,,,,,,,,,,,,,,,,,,,,,,,,,,,,,,,,,,,,,,,,,,,
1717572953.225946,70.000000,1.000000,4445.615234,4476.410156,4427.102539,4290.230957,4478.230957,4441.974121,4555.589844,4497.641113,4654.282227,4623.025879,4639.922852,4661.717773,4633.153809,4573.077148,5180.000000,0.000000,1.000000,,,,0.000000,4.000000,4.000000,4.000000,4.000000,4.000000,4.000000,4.000000,4.000000,4.000000,4.000000,4.000000,4.000000,4.000000,4.000000,100.000000,,,,,,,,,,,,,,,,,,,,,,,,,,,,,,,,,,,,,,,,,,,,,,,,,,,,,,,,,,,,,,,,,,,,,,,,,,,,,,,,,,,,,,,,,,,,,,,,,,,,,,,,,,,,,,,,,,,,,,,,,,,,,,,,,,,,,,,,,,,,,,,
1717572953.233753,71.000000,1.000000,4446.034180,4475.384766,4427.717773,4291.461426,4479.478516,4440.624023,4554.461426,4497.111328,4656.521484,4616.726563,4640.324707,4661.222168,4630.658203,4573.162598,4363.000000,0.000000,1.000000,,,,0.000000,4.000000,4.000000,4.000000,4.000000,4.000000,4.000000,4.000000,4.000000,4.000000,4.000000,4.000000,4.000000,4.000000,4.000000,100.000000,,,,,,,,,,,,,,,,,,,,,,,,,,,,,,,,,,,,,,,,,,,,,,,,,,,,,,,,,,,,,,,,,,,,,,,,,,,,,,,,,,,,,,,,,,,,,,,,,,,,,,,,,,,,,,,,,,,,,,,,,,,,,,,,,,,,,,,,,,,,,,,
1717572953.241561,72.000000,1.000000,4446.453125,4474.358887,4428.333496,4292.692383,4480.726563,4439.273438,4553.333496,4496.581055,4658.760742,4610.427246,4640.726563,4660.726563,4628.162598,4573.248047,5110.000000,0.000000,1.000000,,,,0.000000,4.000000,4.000000,4.000000,4.000000,4.000000,4.000000,4.000000,4.000000,4.000000,4.000000,4.000000,4.000000,4.000000,4.000000,100.000000,,,,,,,,,,,,,,,,,18.000000,1.000000,0.501709,-0.576202,-0.297048,-0.572673,0.971025,-0.295243,0.189639,-26.793346,-35.924305,25.941647,,,,,,,,,,,,,,,,,,,,,,,,,,,,,,,,,,,,,,,,0.000000,0.000000,1.000000,0.000000,512.000000,1.000000,,,,,,,,,,,,,,,,,,,,,,,,,,,,,,,,,,,,,,,,,,,,,,,,,,,,,,,,,,,,,,,,,,,,,,
1717572953.249369,73.000000,1.000000,4446.871582,4473.333496,4428.948730,4293.922852,4481.974121,4437.922852,4552.205078,4496.051270,4661.000000,4604.128418,4641.128418,4660.230957,4625.666504,4573.333496,4552.000000,0.000000,1.000000,,,,0.000000,4.000000,4.000000,4.000000,4.000000,4.000000,4.000000,4.000000,4.000000,4.000000,4.000000,4.000000,4.000000,4.000000,4.000000,100.000000,,,,,,,,,,,,,,,,,,,,,,,,,,,,,,,,,,,,,,,,,,,,,,,,,,,,,,,,,,,,,,,,,,,,,,,,,,,,,,,,,,,,,,,,,,,,,,,,,,,,,,,,,,,,,,,,,,,,,,,,,,,,,,,,,,,,,,,,,,,,,,,
1717572953.257177,74.000000,1.000000,4447.290527,4472.307617,4429.563965,4295.153809,4483.222168,4436.572754,4551.077148,4495.521484,4663.239258,4597.829102,4641.529785,4659.734863,4623.170898,4573.418945,6020.000000,0.000000,1.000000,,,,0.000000,4.000000,4.000000,4.000000,4.000000,4.000000,4.000000,4.000000,4.000000,4.000000,4.000000,4.000000,4.000000,4.000000,4.000000,100.000000,,,,,,,,,,,,,,,,,,,,,,,,,,,,,,,,,,,,,,,,,,,,,,,,,,,,,,,,,,,,,,,,,,,,,,,,,,,,,,,,,,,,,,,,,,,,,,,,,,,,,,,,,,,,,,,,,,,,,,,,,,,,,,,,,,,,,,,,,,,,,,,
1717572953.264985,75.000000,1.000000,4447.709473,4471.282227,4430.179688,4296.384766,4484.470215,4435.222168,4549.948730,4494.991211,4665.478516,4591.529785,4641.931641,4659.239258,4620.675293,4573.504395,5796.000000,0.000000,1.000000,,,,0.000000,4.000000,4.000000,4.000000,4.000000,4.000000,4.000000,4.000000,4.000000,4.000000,4.000000,4.000000,4.000000,4.000000,4.000000,100.000000,,,,,,,,,,,,,,,,,,,,,,,,,,,,,,,,,,,,,,,,,,,,,,,,,,,,,,,,,,,,,,,,,,,,,,,,,,,,,,,,,,,,,,,,,,,,,,,,,,,,,,,,,,,,,,,,,,,,,,,,,,,,,,,,,,,,,,,,,,,,,,,
1717572953.272793,76.000000,1.000000,4448.128418,4470.256348,4430.794922,4297.615234,4485.717773,4433.871582,4548.820313,4494.461426,4667.717773,4585.230957,4642.333496,4658.743652,4618.179688,4573.589844,6626.000000,0.000000,1.000000,,,,0.000000,4.000000,4.000000,4.000000,4.000000,4.000000,4.000000,4.000000,4.000000,4.000000,4.000000,4.000000,4.000000,4.000000,4.000000,100.000000,,,,,,,,,,,,,,,,,19.000000,0.000000,0.504519,-0.576721,-0.294434,-0.571106,0.974118,-0.306556,0.190697,-26.762177,-35.952236,25.991697,,,,,,,,,,,,,,,,,,,,,,,,,,,,,,,,,,,,,,,,0.000000,0.000000,1.000000,0.000000,512.000000,1.000000,,,,,,,,,,,,,,,,,,,,,,,,,,,,,,,,,,,,,,,,,,,,,,,,,,,,,,,,,,,,,,,,,,,,,,
1717572953.280601,77.000000,1.000000,4448.546875,4469.230957,4431.410156,4298.846191,4486.965820,4432.521484,4547.692383,4493.931641,4669.957031,4578.931641,4642.734863,4658.248047,4615.683594,4573.675293,6631.000000,0.000000,1.000000,,,,0.000000,4.000000,4.000000,4.000000,4.000000,4.000000,4.000000,4.000000,4.000000,4.000000,4.000000,4.000000,4.000000,4.000000,4.000000,100.000000,,,,,,,,,,,,,,,,,,,,,,,,,,,,,,,,,,,,,,,,,,,,,,,,,,,,,,,,,,,,,,,,,,,,,,,,,,,,,,,,,,,,,,,,,,,,,,,,,,,,,,,,,,,,,,,,,,,,,,,,,,,,,,,,,,,,,,,,,,,,,,,
1717572953.288409,78.000000,1.000000,4448.965820,4468.205078,4432.025879,4300.077148,4488.213867,4431.170898,4546.563965,4493.401855,4672.196777,4572.632324,4643.136719,4657.751953,4613.187988,4573.760742,6017.000000,0.000000,1.000000,,,,0.000000,4.000000,4.000000,4.000000,4.000000,4.000000,4.000000,4.000000,4.000000,4.000000,4.000000,4.000000,4.000000,4.000000,4.000000,100.000000,,,,,,,,,,,,,,,,,,,,,,,,,,,,,,,,,,,,,,,,,,,,,,,,,,,,,,,,,,,,,,,,,,,,,,,,,,,,,,,,,,,,,,,,,,,,,,,,,,,,,,,,,,,,,,,,,,,,,,,,,,,,,,,,,,,,,,,,,,,,,,,
1717572953.296217,79.000000,1.000000,4449.384766,4467.179688,4432.641113,4301.307617,4489.461426,4429.820313,4545.436035,4492.871582,4674.436035,4566.333496,4643.538574,4657.256348,4610.692383,4573.846191,5796.000000,0.000000,1.000000,,,,0.000000,4.000000,4.000000,4.000000,4.000000,4.000000,4.000000,4.000000,4.000000,4.000000,4.000000,4.000000,4.000000,4.000000,4.000000,100.000000,,,,,,,,,,,,,,,,,,,,,,,,,,,,,,,,,,,,,,,,,,,,,,,,,,,,,,,,,,,,,,,,,,,,,,,,,,,,,,,,,,,,,,,,,,,,,,,,,,,,,,,,,,,,,,,,,,,,,,,,,,,,,,,,,,,,,,,,,,,,,,,
1717572953.304025,80.000000,1.000000,4449.803223,4466.153809,4433.256348,4302.538574,4490.709473,4428.470215,4544.307617,4492.341797,4676.675293,4560.034180,4643.939941,4656.760742,4608.196777,4573.931641,5692.799805,0.000000,1.000000,,,,0.000000,4.000000,4.000000,4.000000,4.000000,4.000000,4.000000,4.000000,4.000000,4.000000,4.000000,4.000000,4.000000,4.000000,4.000000,100.000000,,,,,,,,,,,,,,,,,20.000000,0.000000,0.506614,-0.577087,-0.292358,-0.569946,0.966793,-0.300208,0.192162,-25.884630,-36.248096,26.391218,,,,,,,,,,,,,,,,,,,,,,,,,,,,,,,,,,,,,,,,0.000000,0.000000,1.000000,0.000000,512.000000,1.000000,,,,,,,,,,,,,,,,,,,,,,,,,,,,,,,,,,,,,,,,,,,,,,,,,,,,,,,,,,,,,,,,,,,,,,
1717572953.311833,81.000000,1.000000,4450.222168,4465.128418,4433.871582,4303.769043,4491.957031,4427.119629,4543.179688,4491.812012,4678.914551,4553.734863,4644.341797,4656.265137,4605.700684,4574.017090,5857.399902,0.000000,1.000000,,,,0.000000,4.000000,4.000000,4.000000,4.000000,4.000000,4.000000,4.000000,4.000000,4.000000,4.000000,4.000000,4.000000,4.000000,4.000000,100.000000,,,,,,,,,,,,,,,,,,,,,,,,,,,,,,,,,,,,,,,,,,,,,,,,,,,,,,,,,,,,,,,,,,,,,,,,,,,,,,,,,,,,,,,,,,,,,,,,,,,,,,,,,,,,,,,,,,,,,,,,,,,,,,,,,,,,,,,,,,,,,,,
1717572953.319641,82.000000,0.000000,4450.641113,4464.102539,4434.487305,4305.000000,4493.205078,4425.769043,4542.051270,4491.282227,4681.153809,4547.436035,4644.743652,4655.769043,4603.205078,4574.102539,6022.000000,0.000000,1.000000,,,,0.000000,4.000000,4.000000,4.000000,4.000000,4.000000,4.000000,4.000000,4.000000,4.000000,4.000000,4.000000,4.000000,4.000000,4.000000,100.000000,,,,,,,,,,,,,,,,,,,,,,,,,,,,,,,,,,,,,,,,,,,,,,,,,,,,,,,,,,,,,,,,,,,,,,,,,,,,,,,,,,,,,,,,,,,,,,,,,,,,,,,,,,,,,,,,,,,,,,,,,,,,,,,,,,,,,,,,,,,,,,,
1717572953.327449,83.000000,0.000000,4468.846191,4456.153809,4451.538574,4335.384766,4512.307617,4439.102539,4555.897461,4497.820313,4687.948730,4544.615234,4641.666504,4670.128418,4612.436035,4585.769043,5806.000000,0.000000,1.000000,,,,0.000000,4.000000,4.000000,4.000000,4.000000,4.000000,4.000000,4.000000,4.000000,4.000000,4.000000,4.000000,4.000000,4.000000,4.000000,100.000000,,,,,,,,,,,,,,,,,,,,,,,,,,,,,,,,,,,,,,,,,,,,,,,,,,,,,,,,,,,,,,,,,,,,,,,,,,,,,,,,,,,,,,,,,,,,,,,,,,,,,,,,,,,,,,,,,,,,,,,,,,,,,,,,,,,,,,,,,,,,,,,
1717572953.335257,84.000000,0.000000,4488.461426,4399.615234,4470.128418,4390.128418,4516.410156,4452.820313,4573.077148,4503.846191,4681.153809,4508.461426,4678.717773,4686.794922,4598.974121,4599.743652,6726.000000,0.000000,1.000000,,,,0.000000,4.000000,4.000000,4.000000,4.000000,4.000000,4.000000,4.000000,4.000000,4.000000,4.000000,4.000000,4.000000,4.000000,4.000000,100.000000,,,,,,,,,,,,,,,,,21.000000,0.000000,0.506959,-0.577209,-0.292114,-0.569641,0.974118,-0.301184,0.179465,-25.214157,-36.687191,26.587662,1.000000,0.000000,0.000000,,,,,,,,,,,,,,,,,,,,,,,,,,,,,,,,,,,,,0.000000,0.000000,1.000000,0.000000,512.000000,1.000000,15.442930,3.416016,1.251970,0.304828,0.098105,30.175043,4.249502,1.466580,0.719108,0.235862,15.067564,3.764512,1.683451,0.504158,0.156220,19.813919,6.817659,6.208762,1.626275,0.542255,24.515913,5.930114,2.795361,1.204108,0.500083,2.754777,1.205693,0.921646,0.210877,0.082758,5.646869,2.063282,1.548762,0.353579,0.128856,1.909502,0.849865,0.792973,0.287572,0.105257,6.610618,2.353100,1.620160,0.534528,0.161308,2.228019,0.807798,1.081753,0.738474,0.424765,16.875902,4.121826,2.060749,0.517087,0.193788,25.410219,5.413510,2.213538,0.539991,0.182763,6.753018,2.453172,1.421550,0.879697,0.485474,38.512505,7.579829,2.766340,0.769110,0.264339
1717572953.342965,85.000000,0.000000,4480.512695,4425.128418,4465.000000,4373.589844,4491.410156,4439.487305,4560.512695,4502.563965,4650.897461,4413.717773,4689.871582,4674.230957,4521.410156,4587.051270,6653.000000,0.000000,1.000000,,,,0.000000,4.000000,4.000000,4.000000,4.000000,4.000000,4.000000,4.000000,4.000000,4.000000,4.000000,4.000000,4.000000,4.000000,4.000000,100.000000,,,,,,,,,,,,,,,,,,,,,,,,,,,,,,,,,,,,,,,,,,,,,,,,,,,,,,,,,,,,,,,,,,,,,,,,,,,,,,,,,,,,,,,,,,,,,,,,,,,,,,,,,,,,,,,,,,,,,,,,,,,,,,,,,,,,,,,,,,,,,,,
1717572953.350773,86.000000,0.000000,4465.512695,4501.922852,4451.282227,4280.641113,4487.692383,4428.205078,4555.128418,4502.307617,4634.871582,4339.615234,4630.128418,4650.897461,4451.025879,4561.922852,6022.000000,0.000000,1.000000,,,,0.000000,4.000000,4.000000,4.000000,4.000000,4.000000,4.000000,4.000000,4.000000,4.000000,4.000000,4.000000,4.000000,4.000000,4.000000,100.000000,,,,,,,,,,,,,,,,,,,,,,,,,,,,,,,,,,,,,,,,,,,,,,,,,,,,,,,,,,,,,,,,,,,,,,,,,,,,,,,,,,,,,,,,,,,,,,,,,,,,,,,,,,,,,,,,,,,,,,,,,,,,,,,,,,,,,,,,,,,,,,,
1717572953.358481,87.000000,0.000000,4458.077148,4468.205078,4442.436035,4218.205078,4497.051270,4423.717773,4551.410156,4486.794922,4614.615234,4313.589844,4580.897461,4625.769043,4430.384766,4537.948730,5806.000000,0.000000,1.000000,,,,0.000000,4.000000,4.000000,4.000000,4.000000,4.000000,4.000000,4.000000,4.000000,4.000000,4.000000,4.000000,4.000000,4.000000,4.000000,100.000000,,,,,,,,,,,,,,,,,,,,,,,,,,,,,,,,,,,,,,,,,,,,,,,,,,,,,,,,,,,,,,,,,,,,,,,,,,,,,,,,,,,,,,,,,,,,,,,,,,,,,,,,,,,,,,,,,,,,,,,,,,,,,,,,,,,,,,,,,,,,,,,
1717572953.366389,88.000000,1.000000,4463.384766,4454.948730,4447.922852,4253.666504,4493.205078,4424.538574,4551.102539,4487.820313,4613.922852,4328.717773,4596.025879,4631.563965,4441.410156,4544.333496,5990.000000,0.000000,1.000000,,,,0.000000,4.000000,4.000000,4.000000,4.000000,4.000000,4.000000,4.000000,4.000000,4.000000,4.000000,4.000000,4.000000,4.000000,4.000000,100.000000,,,,,,,,,,,,,,,,,22.000000,1.000000,0.507193,-0.577271,-0.292419,-0.569214,0.951898,-0.284092,0.173117,-25.057875,-36.878796,26.639355,,,,,,,,,,,,,,,,,,,,,,,,,,,,,,,,,,,,,,,,0.000000,0.000000,1.000000,0.000000,512.000000,1.000000,,,,,,,,,,,,,,,,,,,,,,,,,,,,,,,,,,,,,,,,,,,,,,,,,,,,,,,,,,,,,,,,,,,,,,
1717572953.374197,89.000000,1.000000,4468.692383,4441.692383,4453.410156,4289.128418,4489.358887,4425.358887,4550.794922,4488.846191,4613.230957,4343.846191,4611.153809,4637.358887,4452.436035,4550.717773,6174.000000,0.000000,1.000000,,,,0.000000,4.000000,4.000000,4.000000,4.000000,4.000000,4.000000,4.000000,4.000000,4.000000,4.000000,4.000000,4.000000,4.000000,4.000000,100.000000,,,,,,,,,,,,,,,,,,,,,,,,,,,,,,,,,,,,,,,,,,,,,,,,,,,,,,,,,,,,,,,,,,,,,,,,,,,,,,,,,,,,,,,,,,,,,,,,,,,,,,,,,,,,,,,,,,,,,,,,,,,,,,,,,,,,,,,,,,,,,,,
1717572953.382005,90.000000,1.000000,4474.000000,4428.436035,4458.897461,4324.589844,4485.512695,4426.179688,4550.487305,4489.871582,4612.538574,4358.974121,4626.282227,4643.153809,4463.461426,4557.102539,6358.000000,0.000000,1.000000,,,,0.000000,4.000000,4.000000,4.000000,4.000000,4.000000,4.000000,4.000000,4.000000,4.000000,4.000000,4.000000,4.000000,4.000000,4.000000,100.000000,,,,,,,,,,,,,,,,,,,,,,,,,,,,,,,,,,,,,,,,,,,,,,,,,,,,,,,,,,,,,,,,,,,,,,,,,,,,,,,,,,,,,,,,,,,,,,,,,,,,,,,,,,,,,,,,,,,,,,,,,,,,,,,,,,,,,,,,,,,,,,,
1717572953.389813,91.000000,1.000000,4479.307617,4415.179688,4464.384766,4360.051270,4481.666504,4427.000000,4550.179688,4490.897461,4611.846191,4374.102539,4641.410156,4648.948730,4474.487305,4563.487305,6542.000000,0.000000,1.000000,,,,0.000000,4.000000,4.000000,4.000000,4.000000,4.000000,4.000000,4.000000,4.000000,4.000000,4.000000,4.000000,4.000000,4.000000,4.000000,100.000000,,,,,,,,,,,,,,,,,,,,,,,,,,,,,,,,,,,,,,,,,,,,,,,,,,,,,,,,,,,,,,,,,,,,,,,,,,,,,,,,,,,,,,,,,,,,,,,,,,,,,,,,,,,,,,,,,,,,,,,,,,,,,,,,,,,,,,,,,,,,,,,
1717572953.397621,92.000000,0.000000,4484.615234,4401.922852,4469.871582,4395.512695,4477.820313,4427.820313,4549.871582,4491.922852,4611.153809,4389.230957,4656.538574,4654.743652,4485.512695,4569.871582,6726.000000,0.000000,1.000000,,,,0.000000,4.000000,4.000000,4.000000,4.000000,4.000000,4.000000,4.000000,4.000000,4.000000,4.000000,4.000000,4.000000,4.000000,4.000000,100.000000,,,,,,,,,,,,,,,,,23.000000,0.000000,0.507427,-0.577332,-0.292725,-0.568787,0.929679,-0.267000,0.166768,-24.901592,-37.070400,26.691048,,,,,,,,,,,,,,,,,,,,,,,,,,,,,,,,,,,,,,,,0.000000,0.000000,1.000000,0.000000,512.000000,1.000000,,,,,,,,,,,,,,,,,,,,,,,,,,,,,,,,,,,,,,,,,,,,,,,,,,,,,,,,,,,,,,,,,,,,,,
1717572953.405529,93.000000,1.000000,4484.102539,4413.397461,4469.679688,4381.132324,4477.649414,4428.333496,4550.641113,4493.953125,4616.751953,4409.594238,4653.504395,4657.115234,4494.829102,4572.243652,6608.666504,0.000000,1.000000,,,,0.000000,4.000000,4.000000,4.000000,4.000000,4.000000,4.000000,4.000000,4.000000,4.000000,4.000000,4.000000,4.000000,4.000000,4.000000,100.000000,,,,,,,,,,,,,,,,,,,,,,,,,,,,,,,,,,,,,,,,,,,,,,,,,,,,,,,,,,,,,,,,,,,,,,,,,,,,,,,,,,,,,,,,,,,,,,,,,,,,,,,,,,,,,,,,,,,,,,,,,,,,,,,,,,,,,,,,,,,,,,,
1717572953.413337,94.000000,1.000000,4483.589844,4424.871582,4469.487305,4366.751953,4477.478516,4428.846191,4551.410156,4495.982910,4622.350586,4429.957031,4650.470215,4659.487305,4504.145508,4574.615234,6491.333496,0.000000,1.000000,,,,0.000000,4.000000,4.000000,4.000000,4.000000,4.000000,4.000000,4.000000,4.000000,4.000000,4.000000,4.000000,4.000000,4.000000,4.000000,100.000000,,,,,,,,,,,,,,,,,,,,,,,,,,,,,,,,,,,,,,,,,,,,,,,,,,,,,,,,,,,,,,,,,,,,,,,,,,,,,,,,,,,,,,,,,,,,,,,,,,,,,,,,,,,,,,,,,,,,,,,,,,,,,,,,,,,,,,,,,,,,,,,
1717572953.421145,95.000000,1.000000,4483.077148,4436.346191,4469.294922,4352.371582,4477.307617,4429.358887,4552.179688,4498.012695,4627.948730,4450.320313,4647.436035,4661.858887,4513.461426,4576.987305,6374.000000,0.000000,1.000000,,,,0.000000,4.000000,4.000000,4.000000,4.000000,4.000000,4.000000,4.000000,4.000000,4.000000,4.000000,4.000000,4.000000,4.000000,4.000000,100.000000,,,,,,,,,,,,,,,,,,,,,,,,,,,,,,,,,,,,,,,,,,,,,,,,,,,,,,,,,,,,,,,,,,,,,,,,,,,,,,,,,,,,,,,,,,,,,,,,,,,,,,,,,,,,,,,,,,,,,,,,,,,,,,,,,,,,,,,,,,,,,,,
1717572953.428953,96.000000,1.000000,4482.563965,4447.820313,4469.102539,4337.991211,4477.136719,4429.871582,4552.948730,4500.042969,4633.546875,4470.683594,4644.401855,4664.230957,4522.777832,4579.358887,6256.666504,0.000000,1.000000,,,,0.000000,4.000000,4.000000,4.000000,4.000000,4.000000,4.000000,4.000000,4.000000,4.000000,4.000000,4.000000,4.000000,4.000000,4.000000,100.000000,,,,,,,,,,,,,,,,,24.000000,0.000000,0.507182,-0.576965,-0.293396,-0.569031,0.954584,-0.245513,0.157490,-24.906450,-37.104523,26.538681,,,,,,,,,,,,,,,,,,,,,,,,,,,,,,,,,,,,,,,,0.000000,0.000000,1.000000,0.000000,512.000000,1.000000,,,,,,,,,,,,,,,,,,,,,,,,,,,,,,,,,,,,,,,,,,,,,,,,,,,,,,,,,,,,,,,,,,,,,,
1717572953.436761,97.000000,1.000000,4482.051270,4459.294922,4468.910156,4323.611328,4476.965820,4430.384766,4553.717773,4502.072754,4639.145508,4491.046875,4641.367676,4666.602539,4532.094238,4581.730957,6139.333496,0.000000,1.000000,,,,0.000000,4.000000,4.000000,4.000000,4.000000,4.000000,4.000000,4.000000,4.000000,4.000000,4.000000,4.000000,4.000000,4.000000,4.000000,100.000000,,,,,,,,,,,,,,,,,,,,,,,,,,,,,,,,,,,,,,,,,,,,,,,,,,,,,,,,,,,,,,,,,,,,,,,,,,,,,,,,,,,,,,,,,,,,,,,,,,,,,,,,,,,,,,,,,,,,,,,,,,,,,,,,,,,,,,,,,,,,,,,
1717572953.444569,98.000000,0.000000,4481.538574,4470.769043,4468.717773,4309.230957,4476.794922,4430.897461,4554.487305,4504.102539,4644.743652,4511.410156,4638.333496,4668.974121,4541.410156,4584.102539,6022.000000,0.000000,1.000000,,,,0.000000,4.000000,4.000000,4.000000,4.000000,4.000000,4.000000,4.000000,4.000000,4.000000,4.000000,4.000000,4.000000,4.000000,4.000000,100.000000,,,,,,,,,,,,,,,,,,,,,,,,,,,,,,,,,,,,,,,,,,,,,,,,,,,,,,,,,,,,,,,,,,,,,,,,,,,,,,,,,,,,,,,,,,,,,,,,,,,,,,,,,,,,,,,,,,,,,,,,,,,,,,,,,,,,,,,,,,,,,,,
1717572953.452876,99.000000,1.000000,4483.171875,4470.650391,4470.360840,4312.440430,4477.169922,4431.557617,4554.615234,4504.477539,4641.405273,4504.301758,4640.935547,4671.049316,4539.634277,4586.215332,6045.370605,0.000000,1.000000,,,,0.000000,4.000000,4.000000,4.000000,4.000000,4.000000,4.000000,4.000000,4.000000,4.000000,4.000000,4.000000,4.000000,4.000000,4.000000,100.000000,,,,,,,,,,,,,,,,,,,,,,,,,,,,,,,,,,,,,,,,,,,,,,,,,,,,,,,,,,,,,,,,,,,,,,,,,,,,,,,,,,,,,,,,,,,,,,,,,,,,,,,,,,,,,,,,,,,,,,,,,,,,,,,,,,,,,,,,,,,,,,,
1717572953.460684,100.000000,1.000000,4484.805176,4470.531738,4472.003906,4315.650391,4477.544922,4432.217285,4554.743652,4504.853027,4638.067383,4497.193848,4643.537598,4673.124512,4537.858398,4588.328613,6068.740723,0.000000,1.000000,,,,0.000000,4.000000,4.000000,4.000000,4.000000,4.000000,4.000000,4.000000,4.000000,4.000000,4.000000,4.000000,4.000000,4.000000,4.000000,100.000000,,,,,,,,,,,,,,,,,25.000000,0.000000,0.507685,-0.575867,-0.294800,-0.568970,0.955561,-0.265535,0.159443,-24.505892,-37.104664,26.519665,1.000000,0.000000,0.000000,,,,,,,,,,,,,,,,,,,,,,,,,,,,,,,,,,,,,0.000000,0.000000,1.000000,0.000000,512.000000,1.000000,13.409906,3.075784,1.167030,0.267938,0.100541,30.489149,4.332817,1.729203,0.736807,0.312561,13.007401,3.306370,1.505442,0.426849,0.147510,19.284285,8.042627,6.401482,1.610403,0.676809,20.931818,4.766528,2.237484,0.942172,0.401585,3.089698,1.337695,1.007846,0.261429,0.109528,5.471933,2.130922,1.595963,0.409241,0.177716,2.263937,0.984767,0.851684,0.326202,0.135765,7.243348,2.419318,1.617789,0.568972,0.203182,3.420079,1.054514,1.229761,0.744052,0.371561,15.823994,4.127252,2.178252,0.558806,0.260392,22.483902,5.085074,2.207457,0.550202,0.223900,8.718063,2.558975,1.461709,0.833017,0.436566,32.991959,6.567161,2.477296,0.674970,0.262319
1717572953.468492,101.000000,1.000000,4486.438965,4470.413086,4473.646484,4318.860352,4477.920410,4432.877441,4554.871582,4505.228027,4634.729492,4490.085449,4646.139648,4675.199219,4536.082520,4590.441406,6092.111328,0.000000,1.000000,,,,0.000000,4.000000,4.000000,4.000000,4.000000,4.000000,4.000000,4.000000,4.000000,4.000000,4.000000,4.000000,4.000000,4.000000,4.000000,100.000000,,,,,,,,,,,,,,,,,,,,,,,,,,,,,,,,,,,,,,,,,,,,,,,,,,,,,,,,,,,,,,,,,,,,,,,,,,,,,,,,,,,,,,,,,,,,,,,,,,,,,,,,,,,,,,,,,,,,,,,,,,,,,,,,,,,,,,,,,,,,,,,
1717572953.476300,102.000000,1.000000,4488.072266,4470.294434,4475.289551,4322.070313,4478.295410,4433.537598,4555.000000,4505.603027,4631.391113,4482.977051,4648.741699,4677.274414,4534.306641,4592.554688,6115.481445,0.000000,1.000000,,,,0.000000,4.000000,4.000000,4.000000,4.000000,4.000000,4.000000,4.000000,4.000000,4.000000,4.000000,4.000000,4.000000,4.000000,4.000000,100.000000,,,,,,,,,,,,,,,,,,,,,,,,,,,,,,,,,,,,,,,,,,,,,,,,,,,,,,,,,,,,,,,,,,,,,,,,,,,,,,,,,,,,,,,,,,,,,,,,,,,,,,,,,,,,,,,,,,,,,,,,,,,,,,,,,,,,,,,,,,,,,,,
1717572953.484108,103.000000,1.000000,4489.705566,4470.175781,4476.932617,4325.280273,4478.670410,4434.197754,4555.128418,4505.978027,4628.053223,4475.869141,4651.343750,4679.349609,4532.530762,4594.667480,6138.852051,0.000000,1.000000,,,,0.000000,4.000000,4.000000,4.000000,4.000000,4.000000,4.000000,4.000000,4.000000,4.000000,4.000000,4.000000,4.000000,4.000000,4.000000,100.000000,,,,,,,,,,,,,,,,,,,,,,,,,,,,,,,,,,,,,,,,,,,,,,,,,,,,,,,,,,,,,,,,,,,,,,,,,,,,,,,,,,,,,,,,,,,,,,,,,,,,,,,,,,,,,,,,,,,,,,,,,,,,,,,,,,,,,,,,,,,,,,,
1717572953.491916,104.000000,1.000000,4491.338867,4470.057129,4478.575684,4328.490234,4479.045410,4434.857422,4555.256348,4506.353516,4624.715332,4468.760742,4653.945801,4681.424316,4530.754883,4596.780762,6162.222168,0.000000,1.000000,,,,0.000000,4.000000,4.000000,4.000000,4.000000,4.000000,4.000000,4.000000,4.000000,4.000000,4.000000,4.000000,4.000000,4.000000,4.000000,100.000000,,,,,,,,,,,,,,,,,26.000000,0.000000,0.507685,-0.575867,-0.294800,-0.568970,0.955561,-0.265535,0.159443,-24.211439,-37.119778,26.564260,,,,,,,,,,,,,,,,,,,,,,,,,,,,,,,,,,,,,,,,0.000000,0.000000,1.000000,0.000000,512.000000,1.000000,,,,,,,,,,,,,,,,,,,,,,,,,,,,,,,,,,,,,,,,,,,,,,,,,,,,,,,,,,,,,,,,,,,,,,
1717572953.499724,105.000000,1.000000,4492.972656,4469.938477,4480.218262,4331.699707,4479.420898,4435.517578,4555.384766,4506.728516,4621.376953,4461.652344,4656.547852,4683.499512,4528.979004,4598.893555,6185.592773,0.000000,1.000000,,,,0.000000,4.000000,4.000000,4.000000,4.000000,4.000000,4.000000,4.000000,4.000000,4.000000,4.000000,4.000000,4.000000,4.000000,4.000000,100.000000,,,,,,,,,,,,,,,,,,,,,,,,,,,,,,,,,,,,,,,,,,,,,,,,,,,,,,,,,,,,,,,,,,,,,,,,,,,,,,,,,,,,,,,,,,,,,,,,,,,,,,,,,,,,,,,,,,,,,,,,,,,,,,,,,,,,,,,,,,,,,,,
1717572953.507532,106.000000,1.000000,4494.605957,4469.819336,4481.861328,4334.909668,4479.795898,4436.177734,4555.512695,4507.103516,4618.039063,4454.543945,4659.149902,4685.574707,4527.203125,4601.006836,6208.962891,0.000000,1.000000,,,,0.000000,4.000000,4.000000,4.000000,4.000000,4.000000,4.000000,4.000000,4.000000,4.000000,4.000000,4.000000,4.000000,4.000000,4.000000,100.000000,,,,,,,,,,,,,,,,,,,,,,,,,,,,,,,,,,,,,,,,,,,,,,,,,,,,,,,,,,,,,,,,,,,,,,,,,,,,,,,,,,,,,,,,,,,,,,,,,,,,,,,,,,,,,,,,,,,,,,,,,,,,,,,,,,,,,,,,,,,,,,,
1717572953.515340,107.000000,1.000000,4496.239258,4469.700684,4483.504395,4338.119629,4480.170898,4436.837402,4555.641113,4507.478516,4614.700684,4447.436035,4661.751953,4687.649414,4525.427246,4603.119629,6232.333496,0.000000,1.000000,,,,0.000000,4.000000,4.000000,4.000000,4.000000,4.000000,4.000000,4.000000,4.000000,4.000000,4.000000,4.000000,4.000000,4.000000,4.000000,100.000000,,,,,,,,,,,,,,,,,,,,,,,,,,,,,,,,,,,,,,,,,,,,,,,,,,,,,,,,,,,,,,,,,,,,,,,,,,,,,,,,,,,,,,,,,,,,,,,,,,,,,,,,,,,,,,,,,,,,,,,,,,,,,,,,,,,,,,,,,,,,,,,
1717572953.523148,108.000000,1.000000,4497.872559,4469.582031,4485.146973,4341.329590,4480.545898,4437.497559,4555.769043,4507.853516,4611.362793,4440.327637,4664.354004,4689.724609,4523.651367,4605.232910,6255.703613,0.000000,1.000000,,,,0.000000,4.000000,4.000000,4.000000,4.000000,4.000000,4.000000,4.000000,4.000000,4.000000,4.000000,4.000000,4.000000,4.000000,4.000000,100.000000,,,,,,,,,,,,,,,,,27.000000,1.000000,0.507895,-0.575165,-0.295746,-0.569000,0.953363,-0.269442,0.167989,-23.815723,-37.150524,26.635633,,,,,,,,,,,,,,,,,,,,,,,,,,,,,,,,,,,,,,,,0.000000,0.000000,1.000000,0.000000,512.000000,1.000000,,,,,,,,,,,,,,,,,,,,,,,,,,,,,,,,,,,,,,,,,,,,,,,,,,,,,,,,,,,,,,,,,,,,,,
1717572953.530956,109.000000,1.000000,4499.506348,4469.463379,4486.790039,4344.539551,4480.921387,4438.157715,4555.897461,4508.229004,4608.024902,4433.219238,4666.956543,4691.799805,4521.875488,4607.345703,6279.074219,0.000000,1.000000,,,,0.000000,4.000000,4.000000,4.000000,4.000000,4.000000,4.000000,4.000000,4.000000,4.000000,4.000000,4.000000,4.000000,4.000000,4.000000,100.000000,,,,,,,,,,,,,,,,,,,,,,,,,,,,,,,,,,,,,,,,,,,,,,,,,,,,,,,,,,,,,,,,,,,,,,,,,,,,,,,,,,,,,,,,,,,,,,,,,,,,,,,,,,,,,,,,,,,,,,,,,,,,,,,,,,,,,,,,,,,,,,,
1717572953.538764,110.000000,1.000000,4501.139648,4469.344727,4488.433105,4347.749512,4481.296387,4438.817871,4556.025879,4508.604004,4604.686523,4426.111328,4669.558594,4693.874512,4520.099609,4609.458496,6302.444336,0.000000,1.000000,,,,0.000000,4.000000,4.000000,4.000000,4.000000,4.000000,4.000000,4.000000,4.000000,4.000000,4.000000,4.000000,4.000000,4.000000,4.000000,100.000000,,,,,,,,,,,,,,,,,,,,,,,,,,,,,,,,,,,,,,,,,,,,,,,,,,,,,,,,,,,,,,,,,,,,,,,,,,,,,,,,,,,,,,,,,,,,,,,,,,,,,,,,,,,,,,,,,,,,,,,,,,,,,,,,,,,,,,,,,,,,,,,
1717572953.546572,111.000000,1.000000,4502.772949,4469.226074,4490.076172,4350.958984,4481.671387,4439.477539,4556.153809,4508.979004,4601.348633,4419.002930,4672.160645,4695.949707,4518.323730,4611.571777,6325.814941,0.000000,1.000000,,,,0.000000,4.000000,4.000000,4.000000,4.000000,4.000000,4.000000,4.000000,4.000000,4.000000,4.000000,4.000000,4.000000,4.000000,4.000000,100.000000,,,,,,,,,,,,,,,,,,,,,,,,,,,,,,,,,,,,,,,,,,,,,,,,,,,,,,,,,,,,,,,,,,,,,,,,,,,,,,,,,,,,,,,,,,,,,,,,,,,,,,,,,,,,,,,,,,,,,,,,,,,,,,,,,,,,,,,,,,,,,,,
1717572953.554380,112.000000,1.000000,4504.406250,4469.107422,4491.718750,4354.168945,4482.046387,4440.137695,4556.282227,4509.354004,4598.010254,4411.894531,4674.762695,4698.024902,4516.547852,4613.684570,6349.185059,0.000000,1.000000,,,,0.000000,4.000000,4.000000,4.000000,4.000000,4.000000,4.000000,4.000000,4.000000,4.000000,4.000000,4.000000,4.000000,4.000000,4.000000,100.000000,,,,,,,,,,,,,,,,,28.000000,0.000000,0.508105,-0.574463,-0.296692,-0.569031,0.951166,-0.273349,0.176535,-23.420010,-37.181267,26.707005,,,,,,,,,,,,,,,,,,,,,,,,,,,,,,,,,,,,,,,,0.000000,0.000000,1.000000,0.000000,512.000000,1.000000,,,,,,,,,,,,,,,,,,,,,,,,,,,,,,,,,,,,,,,,,,,,,,,,,,,,,,,,,,,,,,,,,,,,,,
1717572953.562188,113.000000,1.000000,4506.040039,4468.988770,4493.361816,4357.378906,4482.421875,4440.797852,4556.410156,4509.729492,4594.672363,4404.786133,4677.364746,4700.099609,4514.771973,4615.797852,6372.555664,0.000000,1.000000,,,,0.000000,4.000000,4.000000,4.000000,4.000000,4.000000,4.000000,4.000000,4.000000,4.000000,4.000000,4.000000,4.000000,4.000000,4.000000,100.000000,,,,,,,,,,,,,,,,,,,,,,,,,,,,,,,,,,,,,,,,,,,,,,,,,,,,,,,,,,,,,,,,,,,,,,,,,,,,,,,,,,,,,,,,,,,,,,,,,,,,,,,,,,,,,,,,,,,,,,,,,,,,,,,,,,,,,,,,,,,,,,,
1717572953.569996,114.000000,1.000000,4507.673340,4468.870117,4495.004883,4360.588867,4482.796875,4441.457520,4556.538574,4510.104492,4591.334473,4397.678223,4679.966797,4702.174805,4512.996094,4617.910645,6395.925781,0.000000,1.000000,,,,0.000000,4.000000,4.000000,4.000000,4.000000,4.000000,4.000000,4.000000,4.000000,4.000000,4.000000,4.000000,4.000000,4.000000,4.000000,100.000000,,,,,,,,,,,,,,,,,,,,,,,,,,,,,,,,,,,,,,,,,,,,,,,,,,,,,,,,,,,,,,,,,,,,,,,,,,,,,,,,,,,,,,,,,,,,,,,,,,,,,,,,,,,,,,,,,,,,,,,,,,,,,,,,,,,,,,,,,,,,,,,
1717572953.577804,115.000000,1.000000,4509.306641,4468.750977,4496.647461,4363.798828,4483.171875,4442.117676,4556.666504,4510.479492,4587.996094,4390.569824,4682.568848,4704.250000,4511.220215,4620.023926,6419.296387,0.000000,1.000000,,,,0.000000,4.000000,4.000000,4.000000,4.000000,4.000000,4.000000,4.000000,4.000000,4.000000,4.000000,4.000000,4.000000,4.000000,4.000000,100.000000,,,,,,,,,,,,,,,,,,,,,,,,,,,,,,,,,,,,,,,,,,,,,,,,,,,,,,,,,,,,,,,,,,,,,,,,,,,,,,,,,,,,,,,,,,,,,,,,,,,,,,,,,,,,,,,,,,,,,,,,,,,,,,,,,,,,,,,,,,,,,,,
1717572953.585612,116.000000,1.000000,4510.939941,4468.632324,4498.290527,4367.008789,4483.546875,4442.777832,4556.794922,4510.854492,4584.658203,4383.461426,4685.170898,4706.324707,4509.444336,4622.136719,6442.666504,0.000000,1.000000,,,,0.000000,4.000000,4.000000,4.000000,4.000000,4.000000,4.000000,4.000000,4.000000,4.000000,4.000000,4.000000,4.000000,4.000000,4.000000,100.000000,-1.000000,25.000000,1.000000,1.000000,1.000000,1.000000,1.000000,3.000000,1.000000,1.000000,3.000000,1.000000,1.000000,3.000000,1.000000,1.000000,29.000000,1.000000,0.507487,-0.574158,-0.298157,-0.569122,0.933341,-0.265535,0.164327,-23.560181,-37.185539,26.776705,1.000000,0.000000,0.000000,,,,,,,,,,,,,,,,,,,,,,,,,,,,,,,,,,,,,0.000000,0.000000,1.000000,0.000000,512.000000,1.000000,10.446566,2.530320,1.055947,0.237354,0.112574,28.389297,4.266799,2.081221,0.749187,0.437241,10.067736,2.622978,1.276122,0.346162,0.143566,17.666889,9.580074,6.249239,1.635867,0.922797,16.266972,3.372316,1.594708,0.649724,0.291933,3.342852,1.335257,1.003535,0.309648,0.143775,5.239289,2.013131,1.510895,0.464720,0.243322,2.684490,1.044973,0.850421,0.360172,0.178917,7.764240,2.344148,1.506126,0.593608,0.255487,6.085357,1.791118,1.552417,0.809241,0.324354,14.289318,3.789779,2.319357,0.633598,0.368204,17.996164,4.338089,2.129692,0.578334,0.290654,11.370469,2.666583,1.595403,0.790165,0.391114,25.153215,5.103456,2.129711,0.589188,0.275198
1717572953.593420,117.000000,1.000000,4512.573730,4468.513672,4499.933594,4370.218262,4483.922363,4443.437988,4556.922852,4511.229980,4581.319824,4376.353516,4687.772949,4708.399902,4507.668457,4624.250000,6466.037109,0.000000,1.000000,,,,0.000000,4.000000,4.000000,4.000000,4.000000,4.000000,4.000000,4.000000,4.000000,4.000000,4.000000,4.000000,4.000000,4.000000,4.000000,100.000000,,,,,,,,,,,,,,,,,,,,,,,,,,,,,,,,,,,,,,,,,,,,,,,,,,,,,,,,,,,,,,,,,,,,,,,,,,,,,,,,,,,,,,,,,,,,,,,,,,,,,,,,,,,,,,,,,,,,,,,,,,,,,,,,,,,,,,,,,,,,,,,
1717572953.601228,118.000000,1.000000,4514.207031,4468.395020,4501.576660,4373.428223,4484.297363,4444.097656,4557.051270,4511.604980,4577.981934,4369.245117,4690.375000,4710.474609,4505.892578,4626.362793,6489.407227,0.000000,1.000000,,,,0.000000,4.000000,4.000000,4.000000,4.000000,4.000000,4.000000,4.000000,4.000000,4.000000,4.000000,4.000000,4.000000,4.000000,4.000000,100.000000,,,,,,,,,,,,,,,,,,,,,,,,,,,,,,,,,,,,,,,,,,,,,,,,,,,,,,,,,,,,,,,,,,,,,,,,,,,,,,,,,,,,,,,,,,,,,,,,,,,,,,,,,,,,,,,,,,,,,,,,,,,,,,,,,,,,,,,,,,,,,,,
1717572953.609036,119.000000,1.000000,4515.840332,4468.276367,4503.219238,4376.638184,4484.672363,4444.757813,4557.179688,4511.979980,4574.644043,4362.136719,4692.977051,4712.549805,4504.116699,4628.475586,6512.777832,0.000000,1.000000,,,,0.000000,4.000000,4.000000,4.000000,4.000000,4.000000,4.000000,4.000000,4.000000,4.000000,4.000000,4.000000,4.000000,4.000000,4.000000,100.000000,,,,,,,,,,,,,,,,,,,,,,,,,,,,,,,,,,,,,,,,,,,,,,,,,,,,,,,,,,,,,,,,,,,,,,,,,,,,,,,,,,,,,,,,,,,,,,,,,,,,,,,,,,,,,,,,,,,,,,,,,,,,,,,,,,,,,,,,,,,,,,,
1717572953.616844,120.000000,1.000000,4517.474121,4468.157715,4504.862305,4379.848145,4485.047363,4445.417969,4557.307617,4512.354980,4571.305664,4355.028320,4695.579102,4714.625000,4502.340820,4630.588867,6536.147949,0.000000,1.000000,,,,0.000000,4.000000,4.000000,4.000000,4.000000,4.000000,4.000000,4.000000,4.000000,4.000000,4.000000,4.000000,4.000000,4.000000,4.000000,100.000000,,,,,,,,,,,,,,,,,30.000000,0.000000,0.506869,-0.573853,-0.299622,-0.569214,0.915517,-0.257722,0.152118,-23.700354,-37.189812,26.846407,,,,,,,,,,,,,,,,,,,,,,,,,,,,,,,,,,,,,,,,0.000000,0.000000,1.000000,0.000000,512.000000,1.000000,,,,,,,,,,,,,,,,,,,,,,,,,,,,,,,,,,,,,,,,,,,,,,,,,,,,,,,,,,,,,,,,,,,,,,
1717572953.624651,121.000000,1.000000,4519.107422,4468.039063,4506.505371,4383.058105,4485.422363,4446.077637,4557.436035,4512.730469,4567.967773,4347.920410,4698.181152,4716.699707,4500.564941,4632.701660,6559.518555,0.000000,1.000000,,,,0.000000,4.000000,4.000000,4.000000,4.000000,4.000000,4.000000,4.000000,4.000000,4.000000,4.000000,4.000000,4.000000,4.000000,4.000000,100.000000,,,,,,,,,,,,,,,,,,,,,,,,,,,,,,,,,,,,,,,,,,,,,,,,,,,,,,,,,,,,,,,,,,,,,,,,,,,,,,,,,,,,,,,,,,,,,,,,,,,,,,,,,,,,,,,,,,,,,,,,,,,,,,,,,,,,,,,,,,,,,,,
1717572953.632459,122.000000,1.000000,4520.740723,4467.920410,4508.147949,4386.267578,4485.797852,4446.737793,4557.563965,4513.105469,4564.629395,4340.812012,4700.783691,4718.774902,4498.789063,4634.814941,6582.888672,0.000000,1.000000,,,,0.000000,4.000000,4.000000,4.000000,4.000000,4.000000,4.000000,4.000000,4.000000,4.000000,4.000000,4.000000,4.000000,4.000000,4.000000,100.000000,,,,,,,,,,,,,,,,,,,,,,,,,,,,,,,,,,,,,,,,,,,,,,,,,,,,,,,,,,,,,,,,,,,,,,,,,,,,,,,,,,,,,,,,,,,,,,,,,,,,,,,,,,,,,,,,,,,,,,,,,,,,,,,,,,,,,,,,,,,,,,,
1717572953.640267,123.000000,1.000000,4522.374023,4467.801758,4509.791016,4389.477539,4486.172852,4447.397949,4557.692383,4513.480469,4561.291504,4333.703613,4703.385742,4720.850098,4497.013184,4636.927734,6606.259277,0.000000,1.000000,,,,0.000000,4.000000,4.000000,4.000000,4.000000,4.000000,4.000000,4.000000,4.000000,4.000000,4.000000,4.000000,4.000000,4.000000,4.000000,100.000000,,,,,,,,,,,,,,,,,,,,,,,,,,,,,,,,,,,,,,,,,,,,,,,,,,,,,,,,,,,,,,,,,,,,,,,,,,,,,,,,,,,,,,,,,,,,,,,,,,,,,,,,,,,,,,,,,,,,,,,,,,,,,,,,,,,,,,,,,,,,,,,
1717572953.648075,124.000000,1.000000,4524.007813,4467.682617,4511.434082,4392.687500,4486.547852,4448.058105,4557.820313,4513.855469,4557.953613,4326.595215,4705.987793,4722.924805,4495.237305,4639.041016,6629.629395,0.000000,1.000000,,,,0.000000,4.000000,4.000000,4.000000,4.000000,4.000000,4.000000,4.000000,4.000000,4.000000,4.000000,4.000000,4.000000,4.000000,4.000000,100.000000,,,,,,,,,,,,,,,,,31.000000,0.000000,0.506793,-0.572876,-0.300110,-0.570007,0.917470,-0.254792,0.174582,-23.780317,-37.087498,26.811766,,,,,,,,,,,,,,,,,,,,,,,,,,,,,,,,,,,,,,,,0.000000,0.000000,1.000000,0.000000,512.000000,1.000000,,,,,,,,,,,,,,,,,,,,,,,,,,,,,,,,,,,,,,,,,,,,,,,,,,,,,,,,,,,,,,,,,,,,,,
1717572953.655883,125.000000,0.000000,4525.641113,4467.563965,4513.077148,4395.897461,4486.922852,4448.717773,4557.948730,4514.230957,4554.615234,4319.487305,4708.589844,4725.000000,4493.461426,4641.153809,6653.000000,0.000000,1.000000,,,,0.000000,4.000000,4.000000,4.000000,4.000000,4.000000,4.000000,4.000000,4.000000,4.000000,4.000000,4.000000,4.000000,4.000000,4.000000,100.000000,,,,,,,,,,,,,,,,,,,,,,,,,,,,,,,,,,,,,,,,,,,,,,,,,,,,,,,,,,,,,,,,,,,,,,,,,,,,,,,,,,,,,,,,,,,,,,,,,,,,,,,,,,,,,,,,,,,,,,,,,,,,,,,,,,,,,,,,,,,,,,,
1717572953.663691,126.000000,0.000000,4535.512695,4473.846191,4523.974121,4415.641113,4493.589844,4466.794922,4576.153809,4529.871582,4574.230957,4341.922852,4728.077148,4745.000000,4517.179688,4661.666504,6022.000000,0.000000,1.000000,,,,0.000000,4.000000,4.000000,4.000000,4.000000,4.000000,4.000000,4.000000,4.000000,4.000000,4.000000,4.000000,4.000000,4.000000,4.000000,100.000000,,,,,,,,,,,,,,,,,,,,,,,,,,,,,,,,,,,,,,,,,,,,,,,,,,,,,,,,,,,,,,,,,,,,,,,,,,,,,,,,,,,,,,,,,,,,,,,,,,,,,,,,,,,,,,,,,,,,,,,,,,,,,,,,,,,,,,,,,,,,,,,
1717572953.671499,127.000000,0.000000,4520.897461,4446.538574,4510.769043,4394.615234,4477.436035,4454.358887,4558.974121,4516.666504,4552.692383,4323.333496,4705.128418,4725.128418,4505.000000,4640.256348,1.000000,0.000000,1.000000,,,,0.000000,4.000000,4.000000,4.000000,4.000000,4.000000,4.000000,4.000000,4.000000,4.000000,4.000000,4.000000,4.000000,4.000000,4.000000,100.000000,,,,,,,,,,,,,,,,,,,,,,,,,,,,,,,,,,,,,,,,,,,,,,,,,,,,,,,,,,,,,,,,,,,,,,,,,,,,,,,,,,,,,,,,,,,,,,,,,,,,,,,,,,,,,,,,,,,,,,,,,,,,,,,,,,,,,,,,,,,,,,,
1717572953.679307,0.000000,0.000000,4496.666504,4425.256348,4489.358887,4363.205078,4453.974121,4425.641113,4530.128418,4496.538574,4518.846191,4287.948730,4673.461426,4687.307617,4459.743652,4603.589844,3533.000000,0.000000,1.000000,,,,0.000000,4.000000,4.000000,4.000000,4.000000,4.000000,4.000000,4.000000,4.000000,4.000000,4.000000,4.000000,4.000000,4.000000,4.000000,100.000000,,,,,,,,,,,,,,,,,0.000000,0.000000,0.506408,-0.572327,-0.300415,-0.570740,0.942864,-0.239653,0.192162,-24.118317,-37.132824,26.583883,,,,,,,,,,,,,,,,,,,,,,,,,,,,,,,,,,,,,,,,0.000000,0.000000,1.000000,0.000000,512.000000,1.000000,,,,,,,,,,,,,,,,,,,,,,,,,,,,,,,,,,,,,,,,,,,,,,,,,,,,,,,,,,,,,,,,,,,,,,
1717572953.687015,1.000000,0.000000,4494.871582,4430.512695,4485.512695,4363.717773,4450.512695,4422.948730,4531.410156,4495.384766,4521.410156,4275.769043,4671.410156,4678.974121,4443.846191,4595.000000,5432.000000,0.000000,1.000000,,,,0.000000,4.000000,4.000000,4.000000,4.000000,4.000000,4.000000,4.000000,4.000000,4.000000,4.000000,4.000000,4.000000,4.000000,4.000000,100.000000,,,,,,,,,,,,,,,,,,,,,,,,,,,,,,,,,,,,,,,,,,,,,,,,,,,,,,,,,,,,,,,,,,,,,,,,,,,,,,,,,,,,,,,,,,,,,,,,,,,,,,,,,,,,,,,,,,,,,,,,,,,,,,,,,,,,,,,,,,,,,,,
1717572953.694723,2.000000,0.000000,4492.692383,4425.000000,4484.230957,4366.666504,4458.077148,4428.077148,4537.436035,4494.743652,4519.615234,4267.563965,4666.282227,4674.230957,4438.461426,4587.436035,3515.000000,0.000000,1.000000,,,,0.000000,4.000000,4.000000,4.000000,4.000000,4.000000,4.000000,4.000000,4.000000,4.000000,4.000000,4.000000,4.000000,4.000000,4.000000,100.000000,,,,,,,,,,,,,,,,,,,,,,,,,,,,,,,,,,,,,,,,,,,,,,,,,,,,,,,,,,,,,,,,,,,,,,,,,,,,,,,,,,,,,,,,,,,,,,,,,,,,,,,,,,,,,,,,,,,,,,,,,,,,,,,,,,,,,,,,,,,,,,,
1717572953.702431,3.000000,0.000000,4484.743652,4420.897461,4483.846191,4368.717773,4462.307617,4430.128418,4534.230957,4498.846191,4510.641113,4263.333496,4658.461426,4668.461426,4438.589844,4580.256348,3395.000000,0.000000,1.000000,,,,0.000000,4.000000,4.000000,4.000000,4.000000,4.000000,4.000000,4.000000,4.000000,4.000000,4.000000,4.000000,4.000000,4.000000,4.000000,100.000000,,,,,,,,,,,,,,,,,,,,,,,,,,,,,,,,,,,,,,,,,,,,,,,,,,,,,,,,,,,,,,,,,,,,,,,,,,,,,,,,,,,,,,,,,,,,,,,,,,,,,,,,,,,,,,,,,,,,,,,,,,,,,,,,,,,,,,,,,,,,,,,
1717572953.710439,4.000000,1.000000,4482.371582,4419.719727,4481.915039,4368.309082,4460.833496,4430.336426,4532.371582,4498.461426,4507.563965,4259.759766,4655.320313,4664.583496,4435.761230,4576.634766,5187.000000,0.000000,1.000000,,,,0.000000,4.000000,4.000000,4.000000,4.000000,4.000000,4.000000,4.000000,4.000000,4.000000,4.000000,4.000000,4.000000,4.000000,4.000000,100.000000,,,,,,,,,,,,,,,,,1.000000,1.000000,0.506446,-0.570831,-0.302658,-0.570999,0.950556,-0.236479,0.189476,-24.355783,-37.119141,26.723391,1.000000,0.000000,0.000000,,,,,,,,,,,,,,,,,,,,,,,,,,,,,,,,,,,,,0.000000,0.000000,1.000000,0.000000,512.000000,1.000000,7.303969,1.993146,1.010607,0.244405,0.141610,25.177977,4.295259,2.567159,0.806873,0.621108,7.017841,1.952726,1.109812,0.305219,0.154442,16.761168,11.891910,6.515443,1.962422,1.301425,11.650406,2.179747,1.076340,0.425728,0.212839,3.462523,1.209555,0.938410,0.354494,0.184606,4.841668,1.757769,1.341264,0.519487,0.319110,3.016819,1.015837,0.804979,0.389344,0.229520,7.935228,2.214951,1.359256,0.620527,0.314723,12.473529,3.653137,2.235879,1.022923,0.315995,12.492208,3.277270,2.659282,0.796042,0.522788,13.041548,3.450978,2.113722,0.656649,0.385460,15.252975,3.170996,2.004470,0.837104,0.382266,16.991150,3.667591,1.924859,0.570878,0.317086
